Cygnus version: 0.27.0
Operative system: Windows
Record datetime: 2023-05-26 13:02:43.394618
Device ID: STEEG_DG081015
Device verison: 
Device bandwidth: DC to 131 Hz
Device sampling rate: 1000 samples/second
Data type / unit: EEG / micro-volt (uV)
Bandpass filter: None
Notch filter: None
Timestamp,Serial Number,Fp1,Fp2,T7,T8,O1,O2,Fz,Pz,Event Id,Event Date,Event Duration,Software Marker,Software Marker Name
0.000,2979182,-10798.71,28615.78,375000.0,375000.0,302147.71,238022.56,375000.0,375000.0,,,,,
0.001,2979183,-10796.77,28611.04,375000.0,375000.0,302116.75,237966.26,375000.0,375000.0,,,,,
0.002,2979184,-10793.76,28608.01,375000.0,375000.0,302096.7,237938.22,375000.0,375000.0,,,,,
0.003,2979185,-10789.14,28607.81,375000.0,375000.0,302093.63,237954.18,375000.0,375000.0,,,,,
0.004,2979186,-10783.2,28610.58,375000.0,375000.0,302106.39,238010.87,375000.0,375000.0,,,,,
0.005,2979187,-10776.94,28615.47,375000.0,375000.0,302127.73,238088.46,375000.0,375000.0,,,,,
0.006,2979188,-10771.71,28620.9,375000.0,375000.0,302148.26,238160.3,375000.0,375000.0,,,,,
0.007,2979189,-10768.73,28625.08,375000.0,375000.0,302160.97,238204.58,375000.0,375000.0,,,,,
0.008,2979190,-10768.72,28626.52,375000.0,375000.0,302163.95,238212.37,375000.0,375000.0,,,,,
0.009,2979191,-10771.82,28624.51,375000.0,375000.0,302160.1,238188.6,375000.0,375000.0,,,,,
0.010,2979192,-10777.61,28619.2,375000.0,375000.0,302154.24,238146.65,375000.0,375000.0,,,,,
0.011,2979193,-10785.34,28611.6,375000.0,375000.0,302149.72,238100.44,375000.0,375000.0,,,,,
0.012,2979194,-10794.02,28603.22,375000.0,375000.0,302146.43,238058.74,375000.0,375000.0,,,,,
0.013,2979195,-10802.43,28595.76,375000.0,375000.0,302141.55,238024.08,375000.0,375000.0,,,,,
0.014,2979196,-10809.18,28590.68,375000.0,375000.0,302132.46,237995.97,375000.0,375000.0,,,,,
0.015,2979197,-10812.85,28588.89,375000.0,375000.0,302119.76,237975.08,375000.0,375000.0,,,,,
0.016,2979198,-10812.34,28590.63,375000.0,375000.0,302108.53,237965.18,375000.0,375000.0,,,,,
0.017,2979199,-10807.28,28595.43,375000.0,375000.0,302106.59,237971.34,375000.0,375000.0,,,,,
0.018,2979200,-10798.41,28602.24,375000.0,375000.0,302120.59,237995.56,375000.0,375000.0,,,,,
0.019,2979201,-10787.53,28609.78,375000.0,375000.0,302151.91,238033.25,375000.0,375000.0,,,,,
0.020,2979202,-10777.08,28616.73,375000.0,375000.0,302194.76,238073.15,375000.0,375000.0,,,,,
0.021,2979203,-10769.44,28622.11,375000.0,375000.0,302237.74,238101.58,375000.0,375000.0,,,,,
0.022,2979204,-10766.1,28625.33,375000.0,375000.0,302268.33,238108.75,375000.0,375000.0,,,,,
0.023,2979205,-10767.25,28626.28,375000.0,375000.0,302278.14,238093.78,375000.0,375000.0,,,,,
0.024,2979206,-10771.76,28625.2,375000.0,375000.0,302266.42,238065.17,375000.0,375000.0,,,,,
0.025,2979207,-10777.74,28622.48,375000.0,375000.0,302239.94,238036.48,375000.0,375000.0,,,,,
0.026,2979208,-10783.33,28618.58,375000.0,375000.0,302209.49,238019.47,375000.0,375000.0,,,,,
0.027,2979209,-10787.34,28613.94,375000.0,375000.0,302184.7,238018.38,375000.0,375000.0,,,,,
0.028,2979210,-10789.61,28608.96,375000.0,375000.0,302169.95,238028.66,375000.0,375000.0,,,,,
0.029,2979211,-10790.85,28604.02,375000.0,375000.0,302163.11,238040.46,375000.0,375000.0,,,,,
0.030,2979212,-10792.15,28599.48,375000.0,375000.0,302157.77,238044.99,375000.0,375000.0,,,,,
0.031,2979213,-10794.46,28595.63,375000.0,375000.0,302147.53,238039.71,375000.0,375000.0,,,,,
0.032,2979214,-10798.17,28592.63,375000.0,375000.0,302129.91,238029.75,375000.0,375000.0,,,,,
0.033,2979215,-10802.99,28590.43,375000.0,375000.0,302108.06,238024.55,375000.0,375000.0,,,,,
0.034,2979216,-10808.15,28588.86,375000.0,375000.0,302089.3,238032.05,375000.0,375000.0,,,,,
0.035,2979217,-10812.66,28587.69,375000.0,375000.0,302081.43,238053.58,375000.0,375000.0,,,,,
0.036,2979218,-10815.67,28586.77,375000.0,375000.0,302088.8,238082.58,375000.0,375000.0,,,,,
0.037,2979219,-10816.69,28586.03,375000.0,375000.0,302110.09,238107.56,375000.0,375000.0,,,,,
0.038,2979220,-10815.79,28585.5,375000.0,375000.0,302138.83,238117.94,375000.0,375000.0,,,,,
0.039,2979221,-10813.56,28585.14,375000.0,375000.0,302166.28,238109.28,375000.0,375000.0,,,,,
0.040,2979222,-10811.07,28584.79,375000.0,375000.0,302185.19,238085.49,375000.0,375000.0,,,,,
0.041,2979223,-10809.59,28584.17,375000.0,375000.0,302192.63,238056.84,375000.0,375000.0,,,,,
0.042,2979224,-10810.2,28582.98,375000.0,375000.0,302190.57,238035.09,375000.0,375000.0,,,,,
0.043,2979225,-10813.37,28581.13,375000.0,375000.0,302184.35,238028.24,375000.0,375000.0,,,,,
0.044,2979226,-10818.64,28578.9,375000.0,375000.0,302179.78,238037.38,375000.0,375000.0,,,,,
0.045,2979227,-10824.64,28576.85,375000.0,375000.0,302180.36,238056.82,375000.0,375000.0,,,,,
0.046,2979228,-10829.47,28575.63,375000.0,375000.0,302185.99,238077.11,375000.0,375000.0,,,,,
0.047,2979229,-10831.39,28575.61,375000.0,375000.0,302193.4,238089.22,375000.0,375000.0,,,,,
0.048,2979230,-10829.58,28576.58,375000.0,375000.0,302198.05,238088.18,375000.0,375000.0,,,,,
0.049,2979231,-10824.5,28577.83,375000.0,375000.0,302196.43,238074.64,375000.0,375000.0,,,,,
0.050,2979232,-10817.81,28578.39,375000.0,375000.0,302187.81,238054.31,375000.0,375000.0,,,,,
0.051,2979233,-10811.65,28577.61,375000.0,375000.0,302174.56,238035.69,375000.0,375000.0,,,,,
0.052,2979234,-10807.76,28575.6,375000.0,375000.0,302161.17,238027.0,375000.0,375000.0,,,,,
0.053,2979235,-10806.72,28573.29,375000.0,375000.0,302152.38,238033.29,375000.0,375000.0,,,,,
0.054,2979236,-10807.82,28572.11,375000.0,375000.0,302151.13,238054.58,375000.0,375000.0,,,,,
0.055,2979237,-10809.54,28573.26,375000.0,375000.0,302157.38,238085.55,375000.0,375000.0,,,,,
0.056,2979238,-10810.42,28576.98,375000.0,375000.0,302168.08,238116.99,375000.0,375000.0,,,,,
0.057,2979239,-10809.89,28582.27,375000.0,375000.0,302178.43,238138.88,375000.0,375000.0,,,,,
0.058,2979240,-10808.55,28587.13,375000.0,375000.0,302183.87,238143.92,375000.0,375000.0,,,,,
0.059,2979241,-10807.82,28589.46,375000.0,375000.0,302182.07,238130.44,375000.0,375000.0,,,,,
0.060,2979242,-10808.99,28588.02,375000.0,375000.0,302173.97,238103.12,375000.0,375000.0,,,,,
0.061,2979243,-10812.37,28583.09,375000.0,375000.0,302163.45,238071.13,375000.0,375000.0,,,,,
0.062,2979244,-10816.89,28576.52,375000.0,375000.0,302155.62,238044.22,375000.0,375000.0,,,,,
0.063,2979245,-10820.46,28570.94,375000.0,375000.0,302154.45,238028.68,375000.0,375000.0,,,,,
0.064,2979246,-10821.03,28568.61,375000.0,375000.0,302160.87,238024.96,375000.0,375000.0,,,,,
0.065,2979247,-10817.58,28570.45,375000.0,375000.0,302172.15,238028.32,375000.0,375000.0,,,,,
0.066,2979248,-10810.77,28575.68,375000.0,375000.0,302183.08,238032.26,375000.0,375000.0,,,,,
0.067,2979249,-10802.68,28582.28,375000.0,375000.0,302188.43,238032.57,375000.0,375000.0,,,,,
0.068,2979250,-10795.8,28588.08,375000.0,375000.0,302185.53,238030.08,375000.0,375000.0,,,,,
0.069,2979251,-10791.79,28591.8,375000.0,375000.0,302175.65,238030.0,375000.0,375000.0,,,,,
0.070,2979252,-10790.69,28593.65,375000.0,375000.0,302163.54,238038.51,375000.0,375000.0,,,,,
0.071,2979253,-10790.92,28595.07,375000.0,375000.0,302155.12,238058.24,375000.0,375000.0,,,,,
0.072,2979254,-10790.21,28597.76,375000.0,375000.0,302154.55,238085.48,375000.0,375000.0,,,,,
0.073,2979255,-10786.89,28602.6,375000.0,375000.0,302162.1,238110.98,375000.0,375000.0,,,,,
0.074,2979256,-10780.94,28608.97,375000.0,375000.0,302174.09,238124.16,375000.0,375000.0,,,,,
0.075,2979257,-10774.1,28614.86,375000.0,375000.0,302184.75,238118.58,375000.0,375000.0,,,,,
0.076,2979258,-10769.17,28617.79,375000.0,375000.0,302189.35,238095.72,375000.0,375000.0,,,,,
0.077,2979259,-10768.59,28616.06,375000.0,375000.0,302186.66,238064.74,375000.0,375000.0,,,,,
0.078,2979260,-10773.2,28609.64,375000.0,375000.0,302179.62,238038.31,375000.0,375000.0,,,,,
0.079,2979261,-10781.77,28600.32,375000.0,375000.0,302173.73,238026.58,375000.0,375000.0,,,,,
0.080,2979262,-10791.5,28590.93,375000.0,375000.0,302173.96,238032.46,375000.0,375000.0,,,,,
0.081,2979263,-10799.35,28584.12,375000.0,375000.0,302182.04,238050.71,375000.0,375000.0,,,,,
0.082,2979264,-10803.33,28581.18,375000.0,375000.0,302195.34,238071.12,375000.0,375000.0,,,,,
0.083,2979265,-10803.36,28581.64,375000.0,375000.0,302208.26,238084.04,375000.0,375000.0,,,,,
0.084,2979266,-10801.03,28583.68,375000.0,375000.0,302215.25,238085.0,375000.0,375000.0,,,,,
0.085,2979267,-10798.62,28585.22,375000.0,375000.0,302213.83,238076.27,375000.0,375000.0,,,,,
0.086,2979268,-10797.81,28585.02,375000.0,375000.0,302206.11,238064.65,375000.0,375000.0,,,,,
0.087,2979269,-10798.84,28583.32,375000.0,375000.0,302197.82,238057.18,375000.0,375000.0,,,,,
0.088,2979270,-10800.6,28581.56,375000.0,375000.0,302195.44,238057.28,375000.0,375000.0,,,,,
0.089,2979271,-10801.42,28581.51,375000.0,375000.0,302202.88,238063.53,375000.0,375000.0,,,,,
0.090,2979272,-10800.29,28584.09,375000.0,375000.0,302219.52,238071.44,375000.0,375000.0,,,,,
0.091,2979273,-10797.68,28588.79,375000.0,375000.0,302240.44,238076.69,375000.0,375000.0,,,,,
0.092,2979274,-10795.47,28593.68,375000.0,375000.0,302258.76,238077.77,375000.0,375000.0,,,,,
0.093,2979275,-10796.0,28596.29,375000.0,375000.0,302268.7,238076.43,375000.0,375000.0,,,,,
0.094,2979276,-10800.83,28594.81,375000.0,375000.0,302267.85,238075.75,375000.0,375000.0,,,,,
0.095,2979277,-10809.6,28588.94,375000.0,375000.0,302257.54,238077.46,375000.0,375000.0,,,,,
0.096,2979278,-10819.97,28580.11,375000.0,375000.0,302241.47,238080.4,375000.0,375000.0,,,,,
0.097,2979279,-10828.41,28570.87,375000.0,375000.0,302223.47,238081.15,375000.0,375000.0,,,,,
0.098,2979280,-10831.71,28563.8,375000.0,375000.0,302205.85,238076.54,375000.0,375000.0,,,,,
0.099,2979281,-10828.4,28560.5,375000.0,375000.0,302189.15,238066.3,375000.0,375000.0,,,,,
0.100,2979282,-10819.3,28561.12,375000.0,375000.0,302173.19,238054.01,375000.0,375000.0,,,,,
0.101,2979283,-10807.13,28564.54,375000.0,375000.0,302158.57,238045.62,375000.0,375000.0,,,,,
0.102,2979284,-10795.26,28569.16,375000.0,375000.0,302147.45,238046.23,375000.0,375000.0,,,,,
0.103,2979285,-10786.23,28573.7,375000.0,375000.0,302143.07,238057.02,375000.0,375000.0,,,,,
0.104,2979286,-10780.87,28577.66,375000.0,375000.0,302148.02,238074.26,375000.0,375000.0,,,,,
0.105,2979287,-10778.35,28581.27,375000.0,375000.0,302162.44,238090.99,375000.0,375000.0,,,,,
0.106,2979288,-10776.97,28584.94,375000.0,375000.0,302183.09,238100.47,375000.0,375000.0,,,,,
0.107,2979289,-10775.35,28588.71,375000.0,375000.0,302204.07,238099.5,375000.0,375000.0,,,,,
0.108,2979290,-10773.29,28591.93,375000.0,375000.0,302218.91,238089.69,375000.0,375000.0,,,,,
0.109,2979291,-10771.77,28593.49,375000.0,375000.0,302223.04,238076.13,375000.0,375000.0,,,,,
0.110,2979292,-10772.32,28592.37,375000.0,375000.0,302215.49,238064.46,375000.0,375000.0,,,,,
0.111,2979293,-10775.93,28588.33,375000.0,375000.0,302199.13,238057.91,375000.0,375000.0,,,,,
0.112,2979294,-10782.37,28582.16,375000.0,375000.0,302179.3,238056.2,375000.0,375000.0,,,,,
0.113,2979295,-10790.08,28575.52,375000.0,375000.0,302161.71,238056.55,375000.0,375000.0,,,,,
0.114,2979296,-10796.9,28570.23,375000.0,375000.0,302150.53,238056.01,375000.0,375000.0,,,,,
0.115,2979297,-10801.12,28567.5,375000.0,375000.0,302147.36,238053.51,375000.0,375000.0,,,,,
0.116,2979298,-10802.3,28567.44,375000.0,375000.0,302151.41,238050.36,375000.0,375000.0,,,,,
0.117,2979299,-10801.44,28569.08,375000.0,375000.0,302160.42,238049.05,375000.0,375000.0,,,,,
0.118,2979300,-10800.37,28570.94,375000.0,375000.0,302171.72,238051.33,375000.0,375000.0,,,,,
0.119,2979301,-10800.78,28571.78,375000.0,375000.0,302183.01,238056.91,375000.0,375000.0,,,,,
0.120,2979302,-10803.27,28571.23,375000.0,375000.0,302192.75,238063.63,375000.0,375000.0,,,,,
0.121,2979303,-10807.1,28569.9,375000.0,375000.0,302200.16,238068.96,375000.0,375000.0,,,,,
0.122,2979304,-10810.56,28569.0,375000.0,375000.0,302205.14,238071.77,375000.0,375000.0,,,,,
0.123,2979305,-10811.91,28569.65,375000.0,375000.0,302208.15,238073.06,375000.0,375000.0,,,,,
0.124,2979306,-10810.27,28572.22,375000.0,375000.0,302210.07,238075.22,375000.0,375000.0,,,,,
0.125,2979307,-10806.06,28576.2,375000.0,375000.0,302211.81,238080.19,375000.0,375000.0,,,,,
0.126,2979308,-10800.7,28580.42,375000.0,375000.0,302213.87,238087.84,375000.0,375000.0,,,,,
0.127,2979309,-10795.94,28583.64,375000.0,375000.0,302215.92,238095.62,375000.0,375000.0,,,,,
0.128,2979310,-10793.0,28585.21,375000.0,375000.0,302216.79,238099.86,375000.0,375000.0,,,,,
0.129,2979311,-10792.12,28585.32,375000.0,375000.0,302214.99,238097.86,375000.0,375000.0,,,,,
0.130,2979312,-10792.64,28584.83,375000.0,375000.0,302209.59,238089.57,375000.0,375000.0,,,,,
0.131,2979313,-10793.52,28584.74,375000.0,375000.0,302200.93,238077.74,375000.0,375000.0,,,,,
0.132,2979314,-10793.92,28585.67,375000.0,375000.0,302190.89,238066.59,375000.0,375000.0,,,,,
0.133,2979315,-10793.62,28587.46,375000.0,375000.0,302182.29,238059.59,375000.0,375000.0,,,,,
0.134,2979316,-10792.95,28589.35,375000.0,375000.0,302177.69,238057.98,375000.0,375000.0,,,,,
0.135,2979317,-10792.4,28590.38,375000.0,375000.0,302178.3,238060.68,375000.0,375000.0,,,,,
0.136,2979318,-10792.22,28589.99,375000.0,375000.0,302183.41,238065.51,375000.0,375000.0,,,,,
0.137,2979319,-10792.21,28588.34,375000.0,375000.0,302190.78,238070.88,375000.0,375000.0,,,,,
0.138,2979320,-10791.86,28586.22,375000.0,375000.0,302197.74,238076.74,375000.0,375000.0,,,,,
0.139,2979321,-10790.7,28584.69,375000.0,375000.0,302202.35,238084.05,375000.0,375000.0,,,,,
0.140,2979322,-10788.76,28584.43,375000.0,375000.0,302204.05,238093.38,375000.0,375000.0,,,,,
0.141,2979323,-10786.59,28585.38,375000.0,375000.0,302203.45,238103.57,375000.0,375000.0,,,,,
0.142,2979324,-10785.15,28586.71,375000.0,375000.0,302201.49,238111.48,375000.0,375000.0,,,,,
0.143,2979325,-10785.33,28587.19,375000.0,375000.0,302198.64,238113.31,375000.0,375000.0,,,,,
0.144,2979326,-10787.56,28585.8,375000.0,375000.0,302194.69,238106.66,375000.0,375000.0,,,,,
0.145,2979327,-10791.69,28582.28,375000.0,375000.0,302189.15,238092.17,375000.0,375000.0,,,,,
0.146,2979328,-10797.05,28577.23,375000.0,375000.0,302182.17,238073.56,375000.0,375000.0,,,,,
0.147,2979329,-10802.81,28571.96,375000.0,375000.0,302175.11,238056.09,375000.0,375000.0,,,,,
0.148,2979330,-10808.24,28567.87,375000.0,375000.0,302170.3,238044.17,375000.0,375000.0,,,,,
0.149,2979331,-10812.85,28565.94,375000.0,375000.0,302170.07,238039.59,375000.0,375000.0,,,,,
0.150,2979332,-10816.27,28566.42,375000.0,375000.0,302175.34,238041.2,375000.0,375000.0,,,,,
0.151,2979333,-10818.08,28568.86,375000.0,375000.0,302184.91,238046.31,375000.0,375000.0,,,,,
0.152,2979334,-10817.75,28572.5,375000.0,375000.0,302195.66,238052.59,375000.0,375000.0,,,,,
0.153,2979335,-10814.75,28576.64,375000.0,375000.0,302203.9,238059.32,375000.0,375000.0,,,,,
0.154,2979336,-10808.89,28580.98,375000.0,375000.0,302207.04,238067.25,375000.0,375000.0,,,,,
0.155,2979337,-10800.62,28585.52,375000.0,375000.0,302204.74,238077.06,375000.0,375000.0,,,,,
0.156,2979338,-10791.12,28590.32,375000.0,375000.0,302198.89,238087.89,375000.0,375000.0,,,,,
0.157,2979339,-10782.09,28595.15,375000.0,375000.0,302192.55,238096.86,375000.0,375000.0,,,,,
0.158,2979340,-10775.19,28599.31,375000.0,375000.0,302188.3,238100.16,375000.0,375000.0,,,,,
0.159,2979341,-10771.52,28601.75,375000.0,375000.0,302187.21,238095.32,375000.0,375000.0,,,,,
0.160,2979342,-10771.25,28601.54,375000.0,375000.0,302188.73,238083.02,375000.0,375000.0,,,,,
0.161,2979343,-10773.63,28598.3,375000.0,375000.0,302191.58,238067.35,375000.0,375000.0,,,,,
0.162,2979344,-10777.39,28592.48,375000.0,375000.0,302194.88,238054.09,375000.0,375000.0,,,,,
0.163,2979345,-10781.29,28585.34,375000.0,375000.0,302198.72,238047.9,375000.0,375000.0,,,,,
0.164,2979346,-10784.49,28578.48,375000.0,375000.0,302203.79,238049.85,375000.0,375000.0,,,,,
0.165,2979347,-10786.82,28573.31,375000.0,375000.0,302210.33,238056.96,375000.0,375000.0,,,,,
0.166,2979348,-10788.53,28570.57,375000.0,375000.0,302217.14,238063.85,375000.0,375000.0,,,,,
0.167,2979349,-10789.98,28570.25,375000.0,375000.0,302221.54,238065.76,375000.0,375000.0,,,,,
0.168,2979350,-10791.35,28571.77,375000.0,375000.0,302220.52,238061.12,375000.0,375000.0,,,,,
0.169,2979351,-10792.42,28574.46,375000.0,375000.0,302212.47,238052.35,375000.0,375000.0,,,,,
0.170,2979352,-10792.74,28577.9,375000.0,375000.0,302198.51,238044.48,375000.0,375000.0,,,,,
0.171,2979353,-10791.85,28582.07,375000.0,375000.0,302182.53,238042.4,375000.0,375000.0,,,,,
0.172,2979354,-10789.62,28587.06,375000.0,375000.0,302169.71,238048.35,375000.0,375000.0,,,,,
0.173,2979355,-10786.34,28592.68,375000.0,375000.0,302164.18,238060.95,375000.0,375000.0,,,,,
0.174,2979356,-10782.8,28598.17,375000.0,375000.0,302167.08,238076.19,375000.0,375000.0,,,,,
0.175,2979357,-10779.98,28602.24,375000.0,375000.0,302176.15,238089.53,375000.0,375000.0,,,,,
0.176,2979358,-10778.84,28603.48,375000.0,375000.0,302187.04,238097.87,375000.0,375000.0,,,,,
0.177,2979359,-10779.99,28601.05,375000.0,375000.0,302195.64,238100.44,375000.0,375000.0,,,,,
0.178,2979360,-10783.42,28595.18,375000.0,375000.0,302200.05,238098.29,375000.0,375000.0,,,,,
0.179,2979361,-10788.52,28587.33,375000.0,375000.0,302201.19,238093.12,375000.0,375000.0,,,,,
0.180,2979362,-10794.11,28579.69,375000.0,375000.0,302201.58,238086.35,375000.0,375000.0,,,,,
0.181,2979363,-10798.8,28574.37,375000.0,375000.0,302203.27,238078.98,375000.0,375000.0,,,,,
0.182,2979364,-10801.43,28572.55,375000.0,375000.0,302206.0,238071.99,375000.0,375000.0,,,,,
0.183,2979365,-10801.48,28573.96,375000.0,375000.0,302207.02,238066.78,375000.0,375000.0,,,,,
0.184,2979366,-10799.37,28577.09,375000.0,375000.0,302202.59,238064.84,375000.0,375000.0,,,,,
0.185,2979367,-10796.4,28579.86,375000.0,375000.0,302190.41,238066.81,375000.0,375000.0,,,,,
0.186,2979368,-10794.28,28580.64,375000.0,375000.0,302171.5,238071.56,375000.0,375000.0,,,,,
0.187,2979369,-10794.43,28578.97,375000.0,375000.0,302150.4,238076.06,375000.0,375000.0,,,,,
0.188,2979370,-10797.26,28575.75,375000.0,375000.0,302133.44,238076.67,375000.0,375000.0,,,,,
0.189,2979371,-10801.79,28572.78,375000.0,375000.0,302125.94,238071.15,375000.0,375000.0,,,,,
0.190,2979372,-10805.92,28571.96,375000.0,375000.0,302129.82,238060.4,375000.0,375000.0,,,,,
0.191,2979373,-10807.18,28574.41,375000.0,375000.0,302142.95,238048.58,375000.0,375000.0,,,,,
0.192,2979374,-10803.86,28580.04,375000.0,375000.0,302160.43,238041.35,375000.0,375000.0,,,,,
0.193,2979375,-10795.89,28587.65,375000.0,375000.0,302177.07,238043.0,375000.0,375000.0,,,,,
0.194,2979376,-10785.03,28595.49,375000.0,375000.0,302189.82,238053.97,375000.0,375000.0,,,,,
0.195,2979377,-10774.3,28601.95,375000.0,375000.0,302198.61,238070.42,375000.0,375000.0,,,,,
0.196,2979378,-10766.73,28606.12,375000.0,375000.0,302205.59,238086.04,375000.0,375000.0,,,,,
0.197,2979379,-10764.01,28607.9,375000.0,375000.0,302213.24,238095.45,375000.0,375000.0,,,,,
0.198,2979380,-10765.68,28607.89,375000.0,375000.0,302222.59,238096.99,375000.0,375000.0,,,,,
0.199,2979381,-10769.29,28606.94,375000.0,375000.0,302232.65,238093.5,375000.0,375000.0,,,,,
0.200,2979382,-10771.44,28605.9,375000.0,375000.0,302241.14,238090.51,375000.0,375000.0,,,,,
0.201,2979383,-10769.37,28605.46,375000.0,375000.0,302246.16,238092.93,375000.0,375000.0,,,,,
0.202,2979384,-10762.18,28606.14,375000.0,375000.0,302247.46,238102.19,375000.0,375000.0,,,,,
0.203,2979385,-10751.38,28608.29,375000.0,375000.0,302246.64,238115.59,375000.0,375000.0,,,,,
0.204,2979386,-10740.15,28612.09,375000.0,375000.0,302246.23,238128.11,375000.0,375000.0,,,,,
0.205,2979387,-10731.97,28617.34,375000.0,375000.0,302248.08,238135.66,375000.0,375000.0,,,,,
0.206,2979388,-10729.01,28623.37,375000.0,375000.0,302252.29,238137.62,375000.0,375000.0,,,,,
0.207,2979389,-10731.16,28629.04,375000.0,375000.0,302257.12,238137.01,375000.0,375000.0,,,,,
0.208,2979390,-10736.16,28633.08,375000.0,375000.0,302260.07,238138.28,375000.0,375000.0,,,,,
0.209,2979391,-10740.66,28634.49,375000.0,375000.0,302259.29,238143.94,375000.0,375000.0,,,,,
0.210,2979392,-10741.8,28632.98,375000.0,375000.0,302254.57,238152.3,375000.0,375000.0,,,,,
0.211,2979393,-10738.53,28629.18,375000.0,375000.0,302247.36,238157.86,375000.0,375000.0,,,,,
0.212,2979394,-10732.01,28624.37,375000.0,375000.0,302239.85,238154.22,375000.0,375000.0,,,,,
0.213,2979395,-10725.0,28620.0,375000.0,375000.0,302233.77,238138.02,375000.0,375000.0,,,,,
0.214,2979396,-10720.52,28617.09,375000.0,375000.0,302229.66,238111.4,375000.0,375000.0,,,,,
0.215,2979397,-10720.45,28615.86,375000.0,375000.0,302226.91,238081.49,375000.0,375000.0,,,,,
0.216,2979398,-10724.73,28615.74,375000.0,375000.0,302224.55,238057.07,375000.0,375000.0,,,,,
0.217,2979399,-10731.49,28615.82,375000.0,375000.0,302222.0,238044.38,375000.0,375000.0,,,,,
0.218,2979400,-10737.95,28615.45,375000.0,375000.0,302219.55,238044.24,375000.0,375000.0,,,,,
0.219,2979401,-10741.71,28614.63,375000.0,375000.0,302218.04,238052.38,375000.0,375000.0,,,,,
0.220,2979402,-10741.63,28614.07,375000.0,375000.0,302218.33,238062.5,375000.0,375000.0,,,,,
0.221,2979403,-10738.12,28614.81,375000.0,375000.0,302220.75,238070.27,375000.0,375000.0,,,,,
0.222,2979404,-10732.69,28617.64,375000.0,375000.0,302224.98,238075.71,375000.0,375000.0,,,,,
0.223,2979405,-10727.11,28622.53,375000.0,375000.0,302230.39,238082.5,375000.0,375000.0,,,,,
0.224,2979406,-10722.7,28628.52,375000.0,375000.0,302236.32,238094.75,375000.0,375000.0,,,,,
0.225,2979407,-10720.0,28633.93,375000.0,375000.0,302242.13,238113.15,375000.0,375000.0,,,,,
0.226,2979408,-10719.02,28637.03,375000.0,375000.0,302246.95,238133.09,375000.0,375000.0,,,,,
0.227,2979409,-10719.67,28636.63,375000.0,375000.0,302249.32,238146.18,375000.0,375000.0,,,,,
0.228,2979410,-10722.06,28632.63,375000.0,375000.0,302247.39,238144.4,375000.0,375000.0,,,,,
0.229,2979411,-10726.47,28625.98,375000.0,375000.0,302239.67,238124.79,375000.0,375000.0,,,,,
0.230,2979412,-10732.91,28618.43,375000.0,375000.0,302226.21,238091.74,375000.0,375000.0,,,,,
0.231,2979413,-10740.69,28611.97,375000.0,375000.0,302209.36,238055.64,375000.0,375000.0,,,,,
0.232,2979414,-10748.27,28608.15,375000.0,375000.0,302193.47,238028.31,375000.0,375000.0,,,,,
0.233,2979415,-10753.65,28607.73,375000.0,375000.0,302183.34,238017.6,375000.0,375000.0,,,,,
0.234,2979416,-10755.17,28610.45,375000.0,375000.0,302182.03,238024.09,375000.0,375000.0,,,,,
0.235,2979417,-10752.36,28615.23,375000.0,375000.0,302189.21,238041.39,375000.0,375000.0,,,,,
0.236,2979418,-10746.32,28620.49,375000.0,375000.0,302201.08,238059.95,375000.0,375000.0,,,,,
0.237,2979419,-10739.4,28624.7,375000.0,375000.0,302212.14,238071.92,375000.0,375000.0,,,,,
0.238,2979420,-10734.18,28626.84,375000.0,375000.0,302218.09,238074.77,375000.0,375000.0,,,,,
0.239,2979421,-10732.4,28626.68,375000.0,375000.0,302218.11,238071.62,375000.0,375000.0,,,,,
0.240,2979422,-10734.14,28624.8,375000.0,375000.0,302215.37,238068.56,375000.0,375000.0,,,,,
0.241,2979423,-10737.89,28622.3,375000.0,375000.0,302215.21,238070.62,375000.0,375000.0,,,,,
0.242,2979424,-10741.39,28620.29,375000.0,375000.0,302221.91,238078.8,375000.0,375000.0,,,,,
0.243,2979425,-10742.73,28619.4,375000.0,375000.0,302235.8,238089.59,375000.0,375000.0,,,,,
0.244,2979426,-10741.35,28619.54,375000.0,375000.0,302252.52,238097.2,375000.0,375000.0,,,,,
0.245,2979427,-10738.1,28620.0,375000.0,375000.0,302264.94,238096.85,375000.0,375000.0,,,,,
0.246,2979428,-10734.68,28619.88,375000.0,375000.0,302266.87,238087.39,375000.0,375000.0,,,,,
0.247,2979429,-10732.57,28618.69,375000.0,375000.0,302256.52,238071.91,375000.0,375000.0,,,,,
0.248,2979430,-10732.17,28616.7,375000.0,375000.0,302237.72,238056.1,375000.0,375000.0,,,,,
0.249,2979431,-10732.66,28614.9,375000.0,375000.0,302218.2,238045.6,375000.0,375000.0,,,,,
0.250,2979432,-10732.5,28614.6,375000.0,375000.0,302205.71,238043.77,375000.0,375000.0,,,,,
0.251,2979433,-10730.45,28616.72,375000.0,375000.0,302204.16,238050.76,375000.0,375000.0,,,,,
0.252,2979434,-10726.37,28621.27,375000.0,375000.0,302211.8,238064.21,375000.0,375000.0,,,,,
0.253,2979435,-10721.3,28627.26,375000.0,375000.0,302222.55,238080.69,375000.0,375000.0,,,,,
0.254,2979436,-10716.93,28633.12,375000.0,375000.0,302229.63,238097.04,375000.0,375000.0,,,,,
0.255,2979437,-10714.6,28637.39,375000.0,375000.0,302229.39,238110.99,375000.0,375000.0,,,,,
0.256,2979438,-10714.54,28639.41,375000.0,375000.0,302223.19,238121.12,375000.0,375000.0,,,,,
0.257,2979439,-10715.82,28639.52,375000.0,375000.0,302216.22,238126.67,375000.0,375000.0,,,,,
0.258,2979440,-10716.95,28638.74,375000.0,375000.0,302214.16,238127.43,375000.0,375000.0,,,,,
0.259,2979441,-10716.81,28638.17,375000.0,375000.0,302219.53,238124.0,375000.0,375000.0,,,,,
0.260,2979442,-10715.34,28638.36,375000.0,375000.0,302229.98,238117.97,375000.0,375000.0,,,,,
0.261,2979443,-10713.52,28639.1,375000.0,375000.0,302239.54,238111.7,375000.0,375000.0,,,,,
0.262,2979444,-10712.64,28639.7,375000.0,375000.0,302242.09,238107.44,375000.0,375000.0,,,,,
0.263,2979445,-10713.31,28639.64,375000.0,375000.0,302235.03,238106.42,375000.0,375000.0,,,,,
0.264,2979446,-10714.86,28639.03,375000.0,375000.0,302220.96,238108.22,375000.0,375000.0,,,,,
0.265,2979447,-10715.52,28638.75,375000.0,375000.0,302206.54,238111.0,375000.0,375000.0,,,,,
0.266,2979448,-10713.33,28639.98,375000.0,375000.0,302198.96,238112.59,375000.0,375000.0,,,,,
0.267,2979449,-10707.33,28643.5,375000.0,375000.0,302202.24,238111.73,375000.0,375000.0,,,,,
0.268,2979450,-10698.23,28649.15,375000.0,375000.0,302215.29,238108.86,375000.0,375000.0,,,,,
0.269,2979451,-10688.17,28655.79,375000.0,375000.0,302232.7,238105.83,375000.0,375000.0,,,,,
0.270,2979452,-10679.71,28661.86,375000.0,375000.0,302247.81,238104.82,375000.0,375000.0,,,,,
0.271,2979453,-10674.5,28666.25,375000.0,375000.0,302256.02,238107.0,375000.0,375000.0,,,,,
0.272,2979454,-10672.49,28668.83,375000.0,375000.0,302256.74,238111.76,375000.0,375000.0,,,,,
0.273,2979455,-10672.09,28670.54,375000.0,375000.0,302252.83,238117.08,375000.0,375000.0,,,,,
0.274,2979456,-10671.22,28672.69,375000.0,375000.0,302248.32,238120.64,375000.0,375000.0,,,,,
0.275,2979457,-10668.64,28676.1,375000.0,375000.0,302245.86,238121.16,375000.0,375000.0,,,,,
0.276,2979458,-10664.66,28680.51,375000.0,375000.0,302245.49,238119.07,375000.0,375000.0,,,,,
0.277,2979459,-10660.92,28684.57,375000.0,375000.0,302245.36,238116.15,375000.0,375000.0,,,,,
0.278,2979460,-10659.29,28686.67,375000.0,375000.0,302243.57,238114.4,375000.0,375000.0,,,,,
0.279,2979461,-10660.53,28685.88,375000.0,375000.0,302239.88,238114.83,375000.0,375000.0,,,,,
0.280,2979462,-10663.62,28682.72,375000.0,375000.0,302235.93,238116.8,375000.0,375000.0,,,,,
0.281,2979463,-10666.16,28679.0,375000.0,375000.0,302233.93,238118.36,375000.0,375000.0,,,,,
0.282,2979464,-10665.67,28677.04,375000.0,375000.0,302234.71,238117.26,375000.0,375000.0,,,,,
0.283,2979465,-10661.0,28678.49,375000.0,375000.0,302236.66,238112.12,375000.0,375000.0,,,,,
0.284,2979466,-10653.07,28683.54,375000.0,375000.0,302236.42,238103.12,375000.0,375000.0,,,,,
0.285,2979467,-10644.38,28690.91,375000.0,375000.0,302231.12,238092.03,375000.0,375000.0,,,,,
0.286,2979468,-10637.55,28698.66,375000.0,375000.0,302220.8,238081.66,375000.0,375000.0,,,,,
0.287,2979469,-10633.85,28705.26,375000.0,375000.0,302209.3,238075.04,375000.0,375000.0,,,,,
0.288,2979470,-10632.42,28710.35,375000.0,375000.0,302202.79,238074.67,375000.0,375000.0,,,,,
0.289,2979471,-10630.87,28714.7,375000.0,375000.0,302206.47,238081.87,375000.0,375000.0,,,,,
0.290,2979472,-10626.8,28719.47,375000.0,375000.0,302221.36,238096.15,375000.0,375000.0,,,,,
0.291,2979473,-10619.48,28725.17,375000.0,375000.0,302242.92,238114.86,375000.0,375000.0,,,,,
0.292,2979474,-10610.42,28731.16,375000.0,375000.0,302262.74,238133.22,375000.0,375000.0,,,,,
0.293,2979475,-10602.74,28735.94,375000.0,375000.0,302272.52,238145.31,375000.0,375000.0,,,,,
0.294,2979476,-10599.36,28738.0,375000.0,375000.0,302268.27,238145.91,375000.0,375000.0,,,,,
0.295,2979477,-10601.24,28736.89,375000.0,375000.0,302252.48,238132.82,375000.0,375000.0,,,,,
0.296,2979478,-10606.68,28733.58,375000.0,375000.0,302232.99,238108.55,375000.0,375000.0,,,,,
0.297,2979479,-10612.19,28729.92,375000.0,375000.0,302219.06,238080.37,375000.0,375000.0,,,,,
0.298,2979480,-10614.39,28727.51,375000.0,375000.0,302216.7,238057.98,375000.0,375000.0,,,,,
0.299,2979481,-10612.01,28726.65,375000.0,375000.0,302225.84,238049.71,375000.0,375000.0,,,,,
0.300,2979482,-10606.57,28726.18,375000.0,375000.0,302240.66,238058.61,375000.0,375000.0,,,,,
0.301,2979483,-10601.46,28724.41,375000.0,375000.0,302252.92,238080.53,375000.0,375000.0,,,,,
0.302,2979484,-10599.68,28720.62,375000.0,375000.0,302256.36,238105.5,375000.0,375000.0,,,,,
0.303,2979485,-10601.65,28716.31,375000.0,375000.0,302249.8,238121.95,375000.0,375000.0,,,,,
0.304,2979486,-10604.42,28715.23,375000.0,375000.0,302237.25,238122.08,375000.0,375000.0,,,,,
0.305,2979487,-10602.75,28721.83,375000.0,375000.0,302225.31,238105.75,375000.0,375000.0,,,,,
0.306,2979488,-10591.84,28739.0,375000.0,375000.0,302219.36,238080.75,375000.0,375000.0,,,,,
0.307,2979489,-10569.96,28766.1,375000.0,375000.0,302220.72,238059.34,375000.0,375000.0,,,,,
0.308,2979490,-10539.93,28798.5,375000.0,375000.0,302226.37,238052.51,375000.0,375000.0,,,,,
0.309,2979491,-10508.14,28829.24,375000.0,375000.0,302231.13,238064.97,375000.0,375000.0,,,,,
0.310,2979492,-10481.85,28851.87,375000.0,375000.0,302230.92,238093.1,375000.0,375000.0,,,,,
0.311,2979493,-10465.97,28863.36,375000.0,375000.0,302225.2,238127.01,375000.0,375000.0,,,,,
0.312,2979494,-10460.99,28865.31,375000.0,375000.0,302217.18,238155.3,375000.0,375000.0,,,,,
0.313,2979495,-10463.13,28863.05,375000.0,375000.0,302211.85,238170.15,375000.0,375000.0,,,,,
0.314,2979496,-10466.54,28862.8,375000.0,375000.0,302213.01,238170.02,375000.0,375000.0,,,,,
0.315,2979497,-10466.33,28868.63,375000.0,375000.0,302221.11,238158.99,375000.0,375000.0,,,,,
0.316,2979498,-10460.85,28880.56,375000.0,375000.0,302233.03,238143.45,375000.0,375000.0,,,,,
0.317,2979499,-10451.96,28894.97,375000.0,375000.0,302243.82,238128.33,375000.0,375000.0,,,,,
0.318,2979500,-10443.49,28906.97,375000.0,375000.0,302249.28,238115.06,375000.0,375000.0,,,,,
0.319,2979501,-10438.57,28913.33,375000.0,375000.0,302248.04,238102.18,375000.0,375000.0,,,,,
0.320,2979502,-10437.66,28914.44,375000.0,375000.0,302241.83,238087.91,375000.0,375000.0,,,,,
0.321,2979503,-10438.13,28914.15,375000.0,375000.0,302234.27,238072.72,375000.0,375000.0,,,,,
0.322,2979504,-10435.74,28917.7,375000.0,375000.0,302228.79,238060.05,375000.0,375000.0,,,,,
0.323,2979505,-10427.04,28928.74,375000.0,375000.0,302227.04,238054.67,375000.0,375000.0,,,,,
0.324,2979506,-10411.27,28947.4,375000.0,375000.0,302228.64,238059.7,375000.0,375000.0,,,,,
0.325,2979507,-10390.88,28970.22,375000.0,375000.0,302232.02,238074.05,375000.0,375000.0,,,,,
0.326,2979508,-10370.25,28992.08,375000.0,375000.0,302235.86,238092.33,375000.0,375000.0,,,,,
0.327,2979509,-10353.42,29009.01,375000.0,375000.0,302239.92,238107.18,375000.0,375000.0,,,,,
0.328,2979510,-10342.18,29020.2,375000.0,375000.0,302244.93,238113.02,375000.0,375000.0,,,,,
0.329,2979511,-10335.41,29028.15,375000.0,375000.0,302251.56,238108.91,375000.0,375000.0,,,,,
0.330,2979512,-10330.01,29036.95,375000.0,375000.0,302259.34,238098.96,375000.0,375000.0,,,,,
0.331,2979513,-10322.84,29049.52,375000.0,375000.0,302266.29,238089.95,375000.0,375000.0,,,,,
0.332,2979514,-10312.51,29065.67,375000.0,375000.0,302269.54,238087.49,375000.0,375000.0,,,,,
0.333,2979515,-10300.08,29081.86,375000.0,375000.0,302266.78,238092.99,375000.0,375000.0,,,,,
0.334,2979516,-10288.23,29093.07,375000.0,375000.0,302257.67,238103.12,375000.0,375000.0,,,,,
0.335,2979517,-10279.6,29095.53,375000.0,375000.0,302244.36,238112.0,375000.0,375000.0,,,,,
0.336,2979518,-10275.05,29089.05,375000.0,375000.0,302230.84,238114.71,375000.0,375000.0,,,,,
0.337,2979519,-10273.0,29077.51,375000.0,375000.0,302221.4,238110.19,375000.0,375000.0,,,,,
0.338,2979520,-10270.06,29067.31,375000.0,375000.0,302218.92,238101.73,375000.0,375000.0,,,,,
0.339,2979521,-10262.78,29064.59,375000.0,375000.0,302223.77,238094.94,375000.0,375000.0,,,,,
0.340,2979522,-10249.48,29072.61,375000.0,375000.0,302233.83,238094.41,375000.0,375000.0,,,,,
0.341,2979523,-10231.38,29090.58,375000.0,375000.0,302245.42,238101.17,375000.0,375000.0,,,,,
0.342,2979524,-10212.33,29114.42,375000.0,375000.0,302254.82,238112.3,375000.0,375000.0,,,,,
0.343,2979525,-10197.35,29138.82,375000.0,375000.0,302259.5,238122.81,375000.0,375000.0,,,,,
0.344,2979526,-10190.55,29159.55,375000.0,375000.0,302258.78,238128.64,375000.0,375000.0,,,,,
0.345,2979527,-10193.38,29174.82,375000.0,375000.0,302253.75,238128.75,375000.0,375000.0,,,,,
0.346,2979528,-10203.91,29185.2,375000.0,375000.0,302246.58,238125.4,375000.0,375000.0,,,,,
0.347,2979529,-10217.42,29192.41,375000.0,375000.0,302239.62,238122.23,375000.0,375000.0,,,,,
0.348,2979530,-10228.08,29197.88,375000.0,375000.0,302234.75,238121.87,375000.0,375000.0,,,,,
0.349,2979531,-10231.12,29201.96,375000.0,375000.0,302232.89,238124.29,375000.0,375000.0,,,,,
0.350,2979532,-10224.61,29204.11,375000.0,375000.0,302234.0,238127.17,375000.0,375000.0,,,,,
0.351,2979533,-10210.2,29203.73,375000.0,375000.0,302237.32,238127.83,375000.0,375000.0,,,,,
0.352,2979534,-10192.59,29201.11,375000.0,375000.0,302241.82,238125.36,375000.0,375000.0,,,,,
0.353,2979535,-10177.83,29197.73,375000.0,375000.0,302246.51,238121.61,375000.0,375000.0,,,,,
0.354,2979536,-10171.0,29195.69,375000.0,375000.0,302250.72,238120.16,375000.0,375000.0,,,,,
0.355,2979537,-10174.22,29196.77,375000.0,375000.0,302254.08,238123.92,375000.0,375000.0,,,,,
0.356,2979538,-10185.64,29201.45,375000.0,375000.0,302256.3,238132.87,375000.0,375000.0,,,,,
0.357,2979539,-10200.07,29208.77,375000.0,375000.0,302257.05,238143.49,375000.0,375000.0,,,,,
0.358,2979540,-10210.84,29216.81,375000.0,375000.0,302255.93,238150.4,375000.0,375000.0,,,,,
0.359,2979541,-10212.47,29223.66,375000.0,375000.0,302252.74,238149.4,375000.0,375000.0,,,,,
0.360,2979542,-10202.88,29228.27,375000.0,375000.0,302247.94,238140.16,375000.0,375000.0,,,,,
0.361,2979543,-10184.39,29230.67,375000.0,375000.0,302242.93,238126.9,375000.0,375000.0,,,,,
0.362,2979544,-10162.77,29231.59,375000.0,375000.0,302239.86,238116.56,375000.0,375000.0,,,,,
0.363,2979545,-10144.98,29231.8,375000.0,375000.0,302240.9,238115.22,375000.0,375000.0,,,,,
0.364,2979546,-10136.32,29231.53,375000.0,375000.0,302247.14,238124.92,375000.0,375000.0,,,,,
0.365,2979547,-10138.36,29230.47,375000.0,375000.0,302257.72,238142.45,375000.0,375000.0,,,,,
0.366,2979548,-10148.5,29228.26,375000.0,375000.0,302269.81,238160.93,375000.0,375000.0,,,,,
0.367,2979549,-10161.29,29225.09,375000.0,375000.0,302279.6,238173.41,375000.0,375000.0,,,,,
0.368,2979550,-10170.96,29222.01,375000.0,375000.0,302283.95,238176.33,375000.0,375000.0,,,,,
0.369,2979551,-10173.86,29220.72,375000.0,375000.0,302282.02,238171.2,375000.0,375000.0,,,,,
0.370,2979552,-10169.88,29222.83,375000.0,375000.0,302275.79,238163.46,375000.0,375000.0,,,,,
0.371,2979553,-10162.07,29229.03,375000.0,375000.0,302269.12,238159.27,375000.0,375000.0,,,,,
0.372,2979554,-10155.01,29238.54,375000.0,375000.0,302265.77,238161.92,375000.0,375000.0,,,,,
0.373,2979555,-10152.66,29249.24,375000.0,375000.0,302267.17,238169.96,375000.0,375000.0,,,,,
0.374,2979556,-10156.72,29258.29,375000.0,375000.0,302271.51,238177.9,375000.0,375000.0,,,,,
0.375,2979557,-10166.24,29263.09,375000.0,375000.0,302274.55,238179.11,375000.0,375000.0,,,,,
0.376,2979558,-10178.4,29262.12,375000.0,375000.0,302272.03,238169.42,375000.0,375000.0,,,,,
0.377,2979559,-10189.96,29255.38,375000.0,375000.0,302262.36,238149.37,375000.0,375000.0,,,,,
0.378,2979560,-10198.53,29244.37,375000.0,375000.0,302248.05,238124.19,375000.0,375000.0,,,,,
0.379,2979561,-10203.21,29231.62,375000.0,375000.0,302234.93,238101.43,375000.0,375000.0,,,,,
0.380,2979562,-10204.37,29219.98,375000.0,375000.0,302229.37,238087.65,375000.0,375000.0,,,,,
0.381,2979563,-10203.07,29211.94,375000.0,375000.0,302234.87,238085.66,375000.0,375000.0,,,,,
0.382,2979564,-10200.48,29208.91,375000.0,375000.0,302249.89,238093.75,375000.0,375000.0,,,,,
0.383,2979565,-10197.74,29210.79,375000.0,375000.0,302268.25,238106.93,375000.0,375000.0,,,,,
0.384,2979566,-10196.05,29215.81,375000.0,375000.0,302282.06,238119.45,375000.0,375000.0,,,,,
0.385,2979567,-10196.87,29220.9,375000.0,375000.0,302285.72,238127.34,375000.0,375000.0,,,,,
0.386,2979568,-10201.68,29222.51,375000.0,375000.0,302278.85,238129.7,375000.0,375000.0,,,,,
0.387,2979569,-10211.39,29217.88,375000.0,375000.0,302266.61,238128.45,375000.0,375000.0,,,,,
0.388,2979570,-10225.6,29206.19,375000.0,375000.0,302256.96,238126.86,375000.0,375000.0,,,,,
0.389,2979571,-10242.2,29189.27,375000.0,375000.0,302256.45,238127.77,375000.0,375000.0,,,,,
0.390,2979572,-10257.65,29171.24,375000.0,375000.0,302266.6,238132.31,375000.0,375000.0,,,,,
0.391,2979573,-10268.09,29157.3,375000.0,375000.0,302282.89,238139.62,375000.0,375000.0,,,,,
0.392,2979574,-10270.76,29151.8,375000.0,375000.0,302296.93,238147.46,375000.0,375000.0,,,,,
0.393,2979575,-10265.23,29156.52,375000.0,375000.0,302300.64,238153.34,375000.0,375000.0,,,,,
0.394,2979576,-10253.63,29169.8,375000.0,375000.0,302290.33,238155.43,375000.0,375000.0,,,,,
0.395,2979577,-10240.03,29187.04,375000.0,375000.0,302268.52,238153.17,375000.0,375000.0,,,,,
0.396,2979578,-10228.9,29202.33,375000.0,375000.0,302242.69,238147.21,375000.0,375000.0,,,,,
0.397,2979579,-10223.55,29210.64,375000.0,375000.0,302221.71,238139.09,375000.0,375000.0,,,,,
0.398,2979580,-10225.04,29209.63,375000.0,375000.0,302211.84,238130.74,375000.0,375000.0,,,,,
0.399,2979581,-10232.07,29200.27,375000.0,375000.0,302214.36,238124.0,375000.0,375000.0,,,,,
0.400,2979582,-10241.77,29186.19,375000.0,375000.0,302225.87,238120.37,375000.0,375000.0,,,,,
0.401,2979583,-10250.89,29172.02,375000.0,375000.0,302240.67,238120.72,375000.0,375000.0,,,,,
0.402,2979584,-10257.11,29161.51,375000.0,375000.0,302253.84,238125.24,375000.0,375000.0,,,,,
0.403,2979585,-10259.64,29156.23,375000.0,375000.0,302263.24,238133.31,375000.0,375000.0,,,,,
0.404,2979586,-10259.31,29155.41,375000.0,375000.0,302269.58,238143.61,375000.0,375000.0,,,,,
0.405,2979587,-10257.91,29156.68,375000.0,375000.0,302274.87,238154.3,375000.0,375000.0,,,,,
0.406,2979588,-10257.46,29157.42,375000.0,375000.0,302280.43,238163.37,375000.0,375000.0,,,,,
0.407,2979589,-10259.37,29155.93,375000.0,375000.0,302285.79,238169.14,375000.0,375000.0,,,,,
0.408,2979590,-10264.09,29151.96,375000.0,375000.0,302289.08,238170.67,375000.0,375000.0,,,,,
0.409,2979591,-10271.1,29146.44,375000.0,375000.0,302288.44,238168.04,375000.0,375000.0,,,,,
0.410,2979592,-10279.29,29140.7,375000.0,375000.0,302283.51,238162.42,375000.0,375000.0,,,,,
0.411,2979593,-10287.52,29135.6,375000.0,375000.0,302275.91,238155.73,375000.0,375000.0,,,,,
0.412,2979594,-10295.09,29131.04,375000.0,375000.0,302268.4,238150.06,375000.0,375000.0,,,,,
0.413,2979595,-10302.0,29126.08,375000.0,375000.0,302263.39,238147.07,375000.0,375000.0,,,,,
0.414,2979596,-10308.82,29119.56,375000.0,375000.0,302261.65,238147.41,375000.0,375000.0,,,,,
0.415,2979597,-10316.19,29110.82,375000.0,375000.0,302262.11,238150.56,375000.0,375000.0,,,,,
0.416,2979598,-10324.38,29100.3,375000.0,375000.0,302262.86,238155.09,375000.0,375000.0,,,,,
0.417,2979599,-10332.86,29089.43,375000.0,375000.0,302262.61,238159.25,375000.0,375000.0,,,,,
0.418,2979600,-10340.52,29080.14,375000.0,375000.0,302261.61,238161.7,375000.0,375000.0,,,,,
0.419,2979601,-10346.16,29074.01,375000.0,375000.0,302261.45,238162.02,375000.0,375000.0,,,,,
0.420,2979602,-10349.28,29071.4,375000.0,375000.0,302263.9,238160.72,375000.0,375000.0,,,,,
0.421,2979603,-10350.61,29071.3,375000.0,375000.0,302269.43,238158.85,375000.0,375000.0,,,,,
0.422,2979604,-10352.0,29071.57,375000.0,375000.0,302276.53,238157.38,375000.0,375000.0,,,,,
0.423,2979605,-10355.65,29069.98,375000.0,375000.0,302282.25,238156.64,375000.0,375000.0,,,,,
0.424,2979606,-10362.91,29065.23,375000.0,375000.0,302283.71,238156.2,375000.0,375000.0,,,,,
0.425,2979607,-10373.31,29057.67,375000.0,375000.0,302279.74,238155.16,375000.0,375000.0,,,,,
0.426,2979608,-10384.5,29049.22,375000.0,375000.0,302271.48,238152.79,375000.0,375000.0,,,,,
0.427,2979609,-10393.17,29042.52,375000.0,375000.0,302261.89,238149.0,375000.0,375000.0,,,,,
0.428,2979610,-10396.76,29039.49,375000.0,375000.0,302254.16,238144.47,375000.0,375000.0,,,,,
0.429,2979611,-10395.07,29040.22,375000.0,375000.0,302250.22,238140.33,375000.0,375000.0,,,,,
0.430,2979612,-10390.87,29042.53,375000.0,375000.0,302250.11,238137.5,375000.0,375000.0,,,,,
0.431,2979613,-10388.95,29042.79,375000.0,375000.0,302252.47,238136.29,375000.0,375000.0,,,,,
0.432,2979614,-10393.99,29037.53,375000.0,375000.0,302255.79,238136.31,375000.0,375000.0,,,,,
0.433,2979615,-10408.19,29025.32,375000.0,375000.0,302259.52,238136.89,375000.0,375000.0,,,,,
0.434,2979616,-10429.74,29007.75,375000.0,375000.0,302264.15,238137.67,375000.0,375000.0,,,,,
0.435,2979617,-10453.18,28989.14,375000.0,375000.0,302270.44,238139.0,375000.0,375000.0,,,,,
0.436,2979618,-10471.44,28974.88,375000.0,375000.0,302278.26,238141.75,375000.0,375000.0,,,,,
0.437,2979619,-10478.84,28969.07,375000.0,375000.0,302285.99,238146.71,375000.0,375000.0,,,,,
0.438,2979620,-10473.52,28972.66,375000.0,375000.0,302291.07,238153.75,375000.0,375000.0,,,,,
0.439,2979621,-10458.18,28982.97,375000.0,375000.0,302291.52,238161.48,375000.0,375000.0,,,,,
0.440,2979622,-10438.82,28994.86,375000.0,375000.0,302287.4,238167.46,375000.0,375000.0,,,,,
0.441,2979623,-10422.07,29003.07,375000.0,375000.0,302281.32,238169.28,375000.0,375000.0,,,,,
0.442,2979624,-10412.49,29004.49,375000.0,375000.0,302277.35,238165.6,375000.0,375000.0,,,,,
0.443,2979625,-10411.07,28999.38,375000.0,375000.0,302278.76,238157.03,375000.0,375000.0,,,,,
0.444,2979626,-10415.58,28990.79,375000.0,375000.0,302285.89,238145.92,375000.0,375000.0,,,,,
0.445,2979627,-10422.32,28982.7,375000.0,375000.0,302295.45,238135.47,375000.0,375000.0,,,,,
0.446,2979628,-10428.3,28977.85,375000.0,375000.0,302301.82,238128.31,375000.0,375000.0,,,,,
0.447,2979629,-10432.56,28976.39,375000.0,375000.0,302299.92,238125.53,375000.0,375000.0,,,,,
0.448,2979630,-10436.1,28976.13,375000.0,375000.0,302288.12,238126.38,375000.0,375000.0,,,,,
0.449,2979631,-10440.61,28974.17,375000.0,375000.0,302269.62,238128.99,375000.0,375000.0,,,,,
0.450,2979632,-10446.97,28968.81,375000.0,375000.0,302251.33,238131.52,375000.0,375000.0,,,,,
0.451,2979633,-10454.45,28960.71,375000.0,375000.0,302240.75,238133.06,375000.0,375000.0,,,,,
0.452,2979634,-10461.09,28952.58,375000.0,375000.0,302242.24,238133.91,375000.0,375000.0,,,,,
0.453,2979635,-10465.1,28947.42,375000.0,375000.0,302254.72,238135.02,375000.0,375000.0,,,,,
0.454,2979636,-10466.18,28946.57,375000.0,375000.0,302271.91,238137.05,375000.0,375000.0,,,,,
0.455,2979637,-10466.04,28948.5,375000.0,375000.0,302285.06,238139.66,375000.0,375000.0,,,,,
0.456,2979638,-10467.6,28949.39,375000.0,375000.0,302286.95,238141.56,375000.0,375000.0,,,,,
0.457,2979639,-10473.35,28945.07,375000.0,375000.0,302275.08,238141.25,375000.0,375000.0,,,,,
0.458,2979640,-10483.82,28933.41,375000.0,375000.0,302252.73,238138.06,375000.0,375000.0,,,,,
0.459,2979641,-10497.08,28915.85,375000.0,375000.0,302227.29,238132.8,375000.0,375000.0,,,,,
0.460,2979642,-10509.63,28896.95,375000.0,375000.0,302206.99,238127.57,375000.0,375000.0,,,,,
0.461,2979643,-10518.24,28882.43,375000.0,375000.0,302197.41,238124.71,375000.0,375000.0,,,,,
0.462,2979644,-10521.71,28876.33,375000.0,375000.0,302199.55,238125.48,375000.0,375000.0,,,,,
0.463,2979645,-10521.59,28879.15,375000.0,375000.0,302209.91,238129.18,375000.0,375000.0,,,,,
0.464,2979646,-10521.26,28887.66,375000.0,375000.0,302222.57,238133.3,375000.0,375000.0,,,,,
0.465,2979647,-10524.01,28896.6,375000.0,375000.0,302231.87,238134.68,375000.0,375000.0,,,,,
0.466,2979648,-10531.16,28901.34,375000.0,375000.0,302234.63,238131.13,375000.0,375000.0,,,,,
0.467,2979649,-10541.08,28900.04,375000.0,375000.0,302231.01,238122.78,375000.0,375000.0,,,,,
0.468,2979650,-10549.99,28894.11,375000.0,375000.0,302223.96,238112.28,375000.0,375000.0,,,,,
0.469,2979651,-10553.79,28887.07,375000.0,375000.0,302217.69,238103.79,375000.0,375000.0,,,,,
0.470,2979652,-10550.21,28882.32,375000.0,375000.0,302215.98,238101.25,375000.0,375000.0,,,,,
0.471,2979653,-10539.97,28881.32,375000.0,375000.0,302220.97,238106.62,375000.0,375000.0,,,,,
0.472,2979654,-10526.41,28883.1,375000.0,375000.0,302232.65,238119.07,375000.0,375000.0,,,,,
0.473,2979655,-10513.85,28885.3,375000.0,375000.0,302249.16,238135.35,375000.0,375000.0,,,,,
0.474,2979656,-10505.58,28886.0,375000.0,375000.0,302267.46,238151.22,375000.0,375000.0,,,,,
0.475,2979657,-10502.48,28885.04,375000.0,375000.0,302284.35,238163.19,375000.0,375000.0,,,,,
0.476,2979658,-10503.11,28884.12,375000.0,375000.0,302297.35,238169.72,375000.0,375000.0,,,,,
0.477,2979659,-10504.84,28885.49,375000.0,375000.0,302305.36,238171.51,375000.0,375000.0,,,,,
0.478,2979660,-10505.55,28890.09,375000.0,375000.0,302308.79,238170.72,375000.0,375000.0,,,,,
0.479,2979661,-10504.72,28896.44,375000.0,375000.0,302309.22,238169.7,375000.0,375000.0,,,,,
0.480,2979662,-10503.47,28900.99,375000.0,375000.0,302308.59,238169.86,375000.0,375000.0,,,,,
0.481,2979663,-10503.49,28899.99,375000.0,375000.0,302308.28,238171.19,375000.0,375000.0,,,,,
0.482,2979664,-10505.79,28891.74,375000.0,375000.0,302308.48,238172.54,375000.0,375000.0,,,,,
0.483,2979665,-10509.79,28878.05,375000.0,375000.0,302308.2,238172.55,375000.0,375000.0,,,,,
0.484,2979666,-10513.59,28863.78,375000.0,375000.0,302305.9,238170.45,375000.0,375000.0,,,,,
0.485,2979667,-10515.06,28854.65,375000.0,375000.0,302300.49,238166.54,375000.0,375000.0,,,,,
0.486,2979668,-10513.2,28854.45,375000.0,375000.0,302292.16,238162.05,375000.0,375000.0,,,,,
0.487,2979669,-10508.91,28862.97,375000.0,375000.0,302282.55,238158.4,375000.0,375000.0,,,,,
0.488,2979670,-10504.74,28875.96,375000.0,375000.0,302274.03,238156.52,375000.0,375000.0,,,,,
0.489,2979671,-10503.58,28887.13,375000.0,375000.0,302268.67,238156.39,375000.0,375000.0,,,,,
0.490,2979672,-10507.21,28891.17,375000.0,375000.0,302267.22,238157.08,375000.0,375000.0,,,,,
0.491,2979673,-10515.29,28886.25,375000.0,375000.0,302268.8,238157.33,375000.0,375000.0,,,,,
0.492,2979674,-10525.44,28874.73,375000.0,375000.0,302271.46,238156.23,375000.0,375000.0,,,,,
0.493,2979675,-10534.39,28861.78,375000.0,375000.0,302273.3,238153.73,375000.0,375000.0,,,,,
0.494,2979676,-10539.51,28852.71,375000.0,375000.0,302273.48,238150.68,375000.0,375000.0,,,,,
0.495,2979677,-10539.95,28850.38,375000.0,375000.0,302272.54,238148.4,375000.0,375000.0,,,,,
0.496,2979678,-10536.94,28854.14,375000.0,375000.0,302271.91,238147.97,375000.0,375000.0,,,,,
0.497,2979679,-10532.93,28860.61,375000.0,375000.0,302272.86,238149.67,375000.0,375000.0,,,,,
0.498,2979680,-10530.31,28865.71,375000.0,375000.0,302275.56,238152.79,375000.0,375000.0,,,,,
0.499,2979681,-10530.27,28866.86,375000.0,375000.0,302278.89,238155.97,375000.0,375000.0,,,,,
0.500,2979682,-10532.43,28864.07,375000.0,375000.0,302281.01,238157.85,375000.0,375000.0,,,,,
0.501,2979683,-10535.3,28859.43,375000.0,375000.0,302280.52,238157.72,375000.0,375000.0,,,,,
0.502,2979684,-10537.34,28855.56,375000.0,375000.0,302277.29,238155.88,375000.0,375000.0,,,,,
0.503,2979685,-10537.88,28853.93,375000.0,375000.0,302272.7,238153.43,375000.0,375000.0,,,,,
0.504,2979686,-10537.49,28854.1,375000.0,375000.0,302268.83,238151.75,375000.0,375000.0,,,,,
0.505,2979687,-10537.57,28854.15,375000.0,375000.0,302267.37,238151.74,375000.0,375000.0,,,,,
0.506,2979688,-10539.54,28852.08,375000.0,375000.0,302268.67,238153.37,375000.0,375000.0,,,,,
0.507,2979689,-10543.93,28847.15,375000.0,375000.0,302271.53,238155.74,375000.0,375000.0,,,,,
0.508,2979690,-10550.08,28840.39,375000.0,375000.0,302274.01,238157.47,375000.0,375000.0,,,,,
0.509,2979691,-10556.41,28834.05,375000.0,375000.0,302274.51,238157.47,375000.0,375000.0,,,,,
0.510,2979692,-10561.19,28830.27,375000.0,375000.0,302272.69,238155.45,375000.0,375000.0,,,,,
0.511,2979693,-10563.37,28829.88,375000.0,375000.0,302269.61,238152.01,375000.0,375000.0,,,,,
0.512,2979694,-10562.96,28832.0,375000.0,375000.0,302267.02,238148.37,375000.0,375000.0,,,,,
0.513,2979695,-10560.96,28834.6,375000.0,375000.0,302266.36,238145.7,375000.0,375000.0,,,,,
0.514,2979696,-10558.74,28835.71,375000.0,375000.0,302267.95,238144.56,375000.0,375000.0,,,,,
0.515,2979697,-10557.36,28834.47,375000.0,375000.0,302270.96,238144.7,375000.0,375000.0,,,,,
0.516,2979698,-10557.16,28831.5,375000.0,375000.0,302274.12,238145.27,375000.0,375000.0,,,,,
0.517,2979699,-10557.75,28828.35,375000.0,375000.0,302276.57,238145.33,375000.0,375000.0,,,,,
0.518,2979700,-10558.41,28826.49,375000.0,375000.0,302278.41,238144.42,375000.0,375000.0,,,,,
0.519,2979701,-10558.62,28826.44,375000.0,375000.0,302280.51,238142.78,375000.0,375000.0,,,,,
0.520,2979702,-10558.36,28827.56,375000.0,375000.0,302283.71,238141.23,375000.0,375000.0,,,,,
0.521,2979703,-10558.19,28828.54,375000.0,375000.0,302287.93,238140.72,375000.0,375000.0,,,,,
0.522,2979704,-10558.84,28828.28,375000.0,375000.0,302291.89,238141.9,375000.0,375000.0,,,,,
0.523,2979705,-10560.78,28826.55,375000.0,375000.0,302293.63,238144.75,375000.0,375000.0,,,,,
0.524,2979706,-10563.87,28824.1,375000.0,375000.0,302291.66,238148.64,375000.0,375000.0,,,,,
0.525,2979707,-10567.35,28822.06,375000.0,375000.0,302285.98,238152.65,375000.0,375000.0,,,,,
0.526,2979708,-10570.09,28821.29,375000.0,375000.0,302278.45,238155.92,375000.0,375000.0,,,,,
0.527,2979709,-10571.05,28821.83,375000.0,375000.0,302272.12,238157.95,375000.0,375000.0,,,,,
0.528,2979710,-10569.79,28822.99,375000.0,375000.0,302269.81,238158.69,375000.0,375000.0,,,,,
0.529,2979711,-10566.59,28823.87,375000.0,375000.0,302272.72,238158.46,375000.0,375000.0,,,,,
0.530,2979712,-10562.41,28824.02,375000.0,375000.0,302279.81,238157.74,375000.0,375000.0,,,,,
0.531,2979713,-10558.48,28823.74,375000.0,375000.0,302288.21,238157.07,375000.0,375000.0,,,,,
0.532,2979714,-10555.87,28823.86,375000.0,375000.0,302294.64,238156.93,375000.0,375000.0,,,,,
0.533,2979715,-10555.04,28825.23,375000.0,375000.0,302296.83,238157.64,375000.0,375000.0,,,,,
0.534,2979716,-10555.74,28828.15,375000.0,375000.0,302294.44,238159.36,375000.0,375000.0,,,,,
0.535,2979717,-10557.15,28832.14,375000.0,375000.0,302288.9,238161.89,375000.0,375000.0,,,,,
0.536,2979718,-10558.26,28836.22,375000.0,375000.0,302282.38,238164.66,375000.0,375000.0,,,,,
0.537,2979719,-10558.37,28839.44,375000.0,375000.0,302276.56,238166.74,375000.0,375000.0,,,,,
0.538,2979720,-10557.41,28841.23,375000.0,375000.0,302271.79,238167.12,375000.0,375000.0,,,,,
0.539,2979721,-10556.02,28841.55,375000.0,375000.0,302267.24,238165.01,375000.0,375000.0,,,,,
0.540,2979722,-10555.32,28840.56,375000.0,375000.0,302261.72,238160.3,375000.0,375000.0,,,,,
0.541,2979723,-10556.34,28838.33,375000.0,375000.0,302254.79,238153.68,375000.0,375000.0,,,,,
0.542,2979724,-10559.51,28834.79,375000.0,375000.0,302247.37,238146.59,375000.0,375000.0,,,,,
0.543,2979725,-10564.26,28829.94,375000.0,375000.0,302241.61,238140.81,375000.0,375000.0,,,,,
0.544,2979726,-10569.1,28824.4,375000.0,375000.0,302239.91,238137.92,375000.0,375000.0,,,,,
0.545,2979727,-10572.12,28819.55,375000.0,375000.0,302243.73,238138.82,375000.0,375000.0,,,,,
0.546,2979728,-10571.71,28817.31,375000.0,375000.0,302252.79,238143.43,375000.0,375000.0,,,,,
0.547,2979729,-10567.28,28819.26,375000.0,375000.0,302265.03,238150.74,375000.0,375000.0,,,,,
0.548,2979730,-10559.6,28825.65,375000.0,375000.0,302277.36,238159.15,375000.0,375000.0,,,,,
0.549,2979731,-10550.54,28834.93,375000.0,375000.0,302286.89,238166.9,375000.0,375000.0,,,,,
0.550,2979732,-10542.42,28844.07,375000.0,375000.0,302291.99,238172.61,375000.0,375000.0,,,,,
0.551,2979733,-10537.04,28849.82,375000.0,375000.0,302292.77,238175.62,375000.0,375000.0,,,,,
0.552,2979734,-10535.08,28850.2,375000.0,375000.0,302290.84,238176.16,375000.0,375000.0,,,,,
0.553,2979735,-10535.94,28845.52,375000.0,375000.0,302288.51,238175.24,375000.0,375000.0,,,,,
0.554,2979736,-10538.14,28838.22,375000.0,375000.0,302287.72,238174.27,375000.0,375000.0,,,,,
0.555,2979737,-10540.18,28831.63,375000.0,375000.0,302289.37,238174.55,375000.0,375000.0,,,,,
0.556,2979738,-10541.26,28828.2,375000.0,375000.0,302293.0,238176.66,375000.0,375000.0,,,,,
0.557,2979739,-10541.63,28828.12,375000.0,375000.0,302297.11,238180.12,375000.0,375000.0,,,,,
0.558,2979740,-10542.31,28829.31,375000.0,375000.0,302299.8,238183.46,375000.0,375000.0,,,,,
0.559,2979741,-10544.39,28828.56,375000.0,375000.0,302299.54,238184.72,375000.0,375000.0,,,,,
0.560,2979742,-10548.31,28823.55,375000.0,375000.0,302295.81,238182.39,375000.0,375000.0,,,,,
0.561,2979743,-10553.4,28814.44,375000.0,375000.0,302289.3,238176.23,375000.0,375000.0,,,,,
0.562,2979744,-10558.08,28804.17,375000.0,375000.0,302281.7,238167.68,375000.0,375000.0,,,,,
0.563,2979745,-10560.52,28797.24,375000.0,375000.0,302275.18,238159.55,375000.0,375000.0,,,,,
0.564,2979746,-10559.41,28797.55,375000.0,375000.0,302271.58,238154.97,375000.0,375000.0,,,,,
0.565,2979747,-10554.66,28806.37,375000.0,375000.0,302271.87,238156.09,375000.0,375000.0,,,,,
0.566,2979748,-10547.41,28821.54,375000.0,375000.0,302275.79,238163.01,375000.0,375000.0,,,,,
0.567,2979749,-10539.57,28838.37,375000.0,375000.0,302282.02,238173.65,375000.0,375000.0,,,,,
0.568,2979750,-10533.15,28851.76,375000.0,375000.0,302288.75,238184.49,375000.0,375000.0,,,,,
0.569,2979751,-10529.52,28858.4,375000.0,375000.0,302294.37,238192.07,375000.0,375000.0,,,,,
0.570,2979752,-10529.12,28858.14,375000.0,375000.0,302297.97,238194.44,375000.0,375000.0,,,,,
0.571,2979753,-10531.45,28853.62,375000.0,375000.0,302299.55,238191.99,375000.0,375000.0,,,,,
0.572,2979754,-10535.5,28848.7,375000.0,375000.0,302299.7,238187.16,375000.0,375000.0,,,,,
0.573,2979755,-10540.05,28846.41,375000.0,375000.0,302299.15,238183.24,375000.0,375000.0,,,,,
0.574,2979756,-10543.97,28847.6,375000.0,375000.0,302298.26,238182.83,375000.0,375000.0,,,,,
0.575,2979757,-10546.33,28850.89,375000.0,375000.0,302296.93,238186.71,375000.0,375000.0,,,,,
0.576,2979758,-10546.44,28853.85,375000.0,375000.0,302294.81,238193.63,375000.0,375000.0,,,,,
0.577,2979759,-10543.9,28854.62,375000.0,375000.0,302291.83,238201.04,375000.0,375000.0,,,,,
0.578,2979760,-10538.78,28853.12,375000.0,375000.0,302288.61,238206.32,375000.0,375000.0,,,,,
0.579,2979761,-10531.7,28851.06,375000.0,375000.0,302286.53,238207.97,375000.0,375000.0,,,,,
0.580,2979762,-10523.76,28850.98,375000.0,375000.0,302287.34,238206.04,375000.0,375000.0,,,,,
0.581,2979763,-10516.26,28854.73,375000.0,375000.0,302292.41,238201.86,375000.0,375000.0,,,,,
0.582,2979764,-10510.23,28862.42,375000.0,375000.0,302301.98,238197.2,375000.0,375000.0,,,,,
0.583,2979765,-10506.06,28872.28,375000.0,375000.0,302314.69,238193.41,375000.0,375000.0,,,,,
0.584,2979766,-10503.37,28881.57,375000.0,375000.0,302327.81,238190.94,375000.0,375000.0,,,,,
0.585,2979767,-10501.28,28887.95,375000.0,375000.0,302337.99,238189.42,375000.0,375000.0,,,,,
0.586,2979768,-10498.91,28890.58,375000.0,375000.0,302342.31,238188.09,375000.0,375000.0,,,,,
0.587,2979769,-10495.86,28890.39,375000.0,375000.0,302339.36,238186.32,375000.0,375000.0,,,,,
0.588,2979770,-10492.41,28889.43,375000.0,375000.0,302329.77,238183.83,375000.0,375000.0,,,,,
0.589,2979771,-10489.28,28889.72,375000.0,375000.0,302316.18,238180.72,375000.0,375000.0,,,,,
0.590,2979772,-10487.16,28892.16,375000.0,375000.0,302302.37,238177.24,375000.0,375000.0,,,,,
0.591,2979773,-10486.27,28896.24,375000.0,375000.0,302292.19,238173.62,375000.0,375000.0,,,,,
0.592,2979774,-10486.2,28900.4,375000.0,375000.0,302288.22,238170.11,375000.0,375000.0,,,,,
0.593,2979775,-10486.18,28903.05,375000.0,375000.0,302291.01,238167.04,375000.0,375000.0,,,,,
0.594,2979776,-10485.54,28903.57,375000.0,375000.0,302298.86,238164.96,375000.0,375000.0,,,,,
0.595,2979777,-10484.01,28902.77,375000.0,375000.0,302308.52,238164.46,375000.0,375000.0,,,,,
0.596,2979778,-10481.69,28902.71,375000.0,375000.0,302316.38,238165.93,375000.0,375000.0,,,,,
0.597,2979779,-10478.62,28905.82,375000.0,375000.0,302319.83,238169.27,375000.0,375000.0,,,,,
0.598,2979780,-10474.35,28913.97,375000.0,375000.0,302318.26,238173.69,375000.0,375000.0,,,,,
0.599,2979781,-10467.8,28927.61,375000.0,375000.0,302313.21,238178.0,375000.0,375000.0,,,,,
0.600,2979782,-10457.75,28945.58,375000.0,375000.0,302307.56,238181.0,375000.0,375000.0,,,,,
0.601,2979783,-10443.65,28965.48,375000.0,375000.0,302304.22,238181.98,375000.0,375000.0,,,,,
0.602,2979784,-10426.41,28984.49,375000.0,375000.0,302304.71,238181.04,375000.0,375000.0,,,,,
0.603,2979785,-10408.47,29000.28,375000.0,375000.0,302308.45,238178.97,375000.0,375000.0,,,,,
0.604,2979786,-10393.08,29011.69,375000.0,375000.0,302313.06,238176.91,375000.0,375000.0,,,,,
0.605,2979787,-10382.81,29019.04,375000.0,375000.0,302315.53,238175.86,375000.0,375000.0,,,,,
0.606,2979788,-10378.23,29023.82,375000.0,375000.0,302313.76,238176.34,375000.0,375000.0,,,,,
0.607,2979789,-10377.39,29028.08,375000.0,375000.0,302307.6,238178.3,375000.0,375000.0,,,,,
0.608,2979790,-10376.55,29033.68,375000.0,375000.0,302298.95,238181.25,375000.0,375000.0,,,,,
0.609,2979791,-10371.88,29041.65,375000.0,375000.0,302290.78,238184.47,375000.0,375000.0,,,,,
0.610,2979792,-10361.36,29051.93,375000.0,375000.0,302285.63,238187.21,375000.0,375000.0,,,,,
0.611,2979793,-10345.76,29063.66,375000.0,375000.0,302284.4,238188.81,375000.0,375000.0,,,,,
0.612,2979794,-10328.28,29075.66,375000.0,375000.0,302286.07,238188.83,375000.0,375000.0,,,,,
0.613,2979795,-10312.83,29087.1,375000.0,375000.0,302288.53,238187.17,375000.0,375000.0,,,,,
0.614,2979796,-10302.04,29097.84,375000.0,375000.0,302289.95,238184.27,375000.0,375000.0,,,,,
0.615,2979797,-10295.96,29108.39,375000.0,375000.0,302289.96,238181.08,375000.0,375000.0,,,,,
0.616,2979798,-10292.17,29119.51,375000.0,375000.0,302289.83,238178.88,375000.0,375000.0,,,,,
0.617,2979799,-10287.24,29131.55,375000.0,375000.0,302291.58,238178.75,375000.0,375000.0,,,,,
0.618,2979800,-10278.69,29144.13,375000.0,375000.0,302296.48,238181.0,375000.0,375000.0,,,,,
0.619,2979801,-10266.32,29156.15,375000.0,375000.0,302303.88,238184.93,375000.0,375000.0,,,,,
0.620,2979802,-10252.08,29166.3,375000.0,375000.0,302311.05,238188.94,375000.0,375000.0,,,,,
0.621,2979803,-10238.72,29173.84,375000.0,375000.0,302314.48,238191.34,375000.0,375000.0,,,,,
0.622,2979804,-10227.99,29179.03,375000.0,375000.0,302311.68,238191.18,375000.0,375000.0,,,,,
0.623,2979805,-10219.55,29183.29,375000.0,375000.0,302302.84,238188.88,375000.0,375000.0,,,,,
0.624,2979806,-10211.16,29188.61,375000.0,375000.0,302291.07,238186.08,375000.0,375000.0,,,,,
0.625,2979807,-10200.24,29196.82,375000.0,375000.0,302281.18,238184.77,375000.0,375000.0,,,,,
0.626,2979808,-10185.57,29208.79,375000.0,375000.0,302277.39,238186.15,375000.0,375000.0,,,,,
0.627,2979809,-10168.28,29224.19,375000.0,375000.0,302281.25,238189.77,375000.0,375000.0,,,,,
0.628,2979810,-10151.31,29241.79,375000.0,375000.0,302290.78,238193.75,375000.0,375000.0,,,,,
0.629,2979811,-10137.72,29260.04,375000.0,375000.0,302301.43,238195.82,375000.0,375000.0,,,,,
0.630,2979812,-10128.78,29277.77,375000.0,375000.0,302308.29,238194.84,375000.0,375000.0,,,,,
0.631,2979813,-10123.2,29294.44,375000.0,375000.0,302308.54,238191.86,375000.0,375000.0,,,,,
0.632,2979814,-10117.81,29310.03,375000.0,375000.0,302302.76,238190.03,375000.0,375000.0,,,,,
0.633,2979815,-10109.62,29324.59,375000.0,375000.0,302294.59,238193.21,375000.0,375000.0,,,,,
0.634,2979816,-10097.75,29337.92,375000.0,375000.0,302288.82,238203.94,375000.0,375000.0,,,,,
0.635,2979817,-10084.21,29349.48,375000.0,375000.0,302289.01,238221.81,375000.0,375000.0,,,,,
0.636,2979818,-10072.82,29358.7,375000.0,375000.0,302295.82,238243.1,375000.0,375000.0,,,,,
0.637,2979819,-10066.98,29365.37,375000.0,375000.0,302306.9,238262.04,375000.0,375000.0,,,,,
0.638,2979820,-10067.46,29369.89,375000.0,375000.0,302318.16,238273.07,375000.0,375000.0,,,,,
0.639,2979821,-10071.76,29373.09,375000.0,375000.0,302325.88,238273.07,375000.0,375000.0,,,,,
0.640,2979822,-10075.49,29375.76,375000.0,375000.0,302328.32,238262.49,375000.0,375000.0,,,,,
0.641,2979823,-10074.98,29378.14,375000.0,375000.0,302326.23,238244.87,375000.0,375000.0,,,,,
0.642,2979824,-10069.71,29379.81,375000.0,375000.0,302322.05,238225.22,375000.0,375000.0,,,,,
0.643,2979825,-10062.91,29380.0,375000.0,375000.0,302318.36,238208.03,375000.0,375000.0,,,,,
0.644,2979826,-10059.82,29378.36,375000.0,375000.0,302316.6,238196.02,375000.0,375000.0,,,,,
0.645,2979827,-10064.44,29375.58,375000.0,375000.0,302316.62,238189.85,375000.0,375000.0,,,,,
0.646,2979828,-10076.62,29373.48,375000.0,375000.0,302317.16,238188.82,375000.0,375000.0,,,,,
0.647,2979829,-10091.27,29374.46,375000.0,375000.0,302317.05,238191.74,375000.0,375000.0,,,,,
0.648,2979830,-10100.32,29380.42,375000.0,375000.0,302316.05,238197.32,375000.0,375000.0,,,,,
0.649,2979831,-10096.56,29391.72,375000.0,375000.0,302315.17,238204.2,375000.0,375000.0,,,,,
0.650,2979832,-10077.47,29406.84,375000.0,375000.0,302316.0,238210.58,375000.0,375000.0,,,,,
0.651,2979833,-10046.76,29422.81,375000.0,375000.0,302319.65,238214.41,375000.0,375000.0,,,,,
0.652,2979834,-10012.92,29436.47,375000.0,375000.0,302325.94,238214.11,375000.0,375000.0,,,,,
0.653,2979835,-9985.35,29445.73,375000.0,375000.0,302333.14,238209.68,375000.0,375000.0,,,,,
0.654,2979836,-9970.14,29450.34,375000.0,375000.0,302338.64,238203.38,375000.0,375000.0,,,,,
0.655,2979837,-9967.75,29451.69,375000.0,375000.0,302340.06,238199.27,375000.0,375000.0,,,,,
0.656,2979838,-9973.57,29451.82,375000.0,375000.0,302336.38,238201.52,375000.0,375000.0,,,,,
0.657,2979839,-9981.05,29452.21,375000.0,375000.0,302328.4,238212.05,375000.0,375000.0,,,,,
0.658,2979840,-9985.31,29452.97,375000.0,375000.0,302318.51,238228.9,375000.0,375000.0,,,,,
0.659,2979841,-9985.5,29452.97,375000.0,375000.0,302309.71,238246.31,375000.0,375000.0,,,,,
0.660,2979842,-9984.37,29450.75,375000.0,375000.0,302304.48,238256.9,375000.0,375000.0,,,,,
0.661,2979843,-9985.78,29445.65,375000.0,375000.0,302303.8,238254.95,375000.0,375000.0,,,,,
0.662,2979844,-9991.67,29438.62,375000.0,375000.0,302306.93,238239.32,375000.0,375000.0,,,,,
0.663,2979845,-10000.4,29431.99,375000.0,375000.0,302311.69,238214.3,375000.0,375000.0,,,,,
0.664,2979846,-10007.58,29428.47,375000.0,375000.0,302315.42,238187.93,375000.0,375000.0,,,,,
0.665,2979847,-10008.79,29429.7,375000.0,375000.0,302316.03,238168.43,375000.0,375000.0,,,,,
0.666,2979848,-10002.6,29435.3,375000.0,375000.0,302312.75,238160.55,375000.0,375000.0,,,,,
0.667,2979849,-9991.98,29442.73,375000.0,375000.0,302306.42,238163.71,375000.0,375000.0,,,,,
0.668,2979850,-9983.17,29448.35,375000.0,375000.0,302299.12,238172.82,375000.0,375000.0,,,,,
0.669,2979851,-9982.49,29448.92,375000.0,375000.0,302293.32,238181.25,375000.0,375000.0,,,,,
0.670,2979852,-9992.86,29443.12,375000.0,375000.0,302290.89,238184.28,375000.0,375000.0,,,,,
0.671,2979853,-10011.97,29432.16,375000.0,375000.0,302292.37,238181.33,375000.0,375000.0,,,,,
0.672,2979854,-10033.03,29419.36,375000.0,375000.0,302296.87,238175.64,375000.0,375000.0,,,,,
0.673,2979855,-10047.84,29408.87,375000.0,375000.0,302302.5,238171.93,375000.0,375000.0,,,,,
0.674,2979856,-10050.46,29404.15,375000.0,375000.0,302307.27,238173.35,375000.0,375000.0,,,,,
0.675,2979857,-10039.72,29406.82,375000.0,375000.0,302309.96,238179.68,375000.0,375000.0,,,,,
0.676,2979858,-10019.39,29416.32,375000.0,375000.0,302310.53,238187.53,375000.0,375000.0,,,,,
0.677,2979859,-9996.09,29430.44,375000.0,375000.0,302310.0,238192.55,375000.0,375000.0,,,,,
0.678,2979860,-9976.31,29446.31,375000.0,375000.0,302309.68,238192.14,375000.0,375000.0,,,,,
0.679,2979861,-9963.94,29461.37,375000.0,375000.0,302310.48,238187.06,375000.0,375000.0,,,,,
0.680,2979862,-9959.47,29474.03,375000.0,375000.0,302312.41,238181.0,375000.0,375000.0,,,,,
0.681,2979863,-9960.8,29483.74,375000.0,375000.0,302314.69,238178.44,375000.0,375000.0,,,,,
0.682,2979864,-9964.81,29490.69,375000.0,375000.0,302316.29,238181.98,375000.0,375000.0,,,,,
0.683,2979865,-9968.85,29495.4,375000.0,375000.0,302316.63,238190.81,375000.0,375000.0,,,,,
0.684,2979866,-9971.28,29498.37,375000.0,375000.0,302315.86,238201.14,375000.0,375000.0,,,,,
0.685,2979867,-9971.31,29499.92,375000.0,375000.0,302314.73,238208.36,375000.0,375000.0,,,,,
0.686,2979868,-9968.74,29500.28,375000.0,375000.0,302313.96,238209.58,375000.0,375000.0,,,,,
0.687,2979869,-9963.85,29499.59,375000.0,375000.0,302313.72,238205.19,375000.0,375000.0,,,,,
0.688,2979870,-9957.8,29497.96,375000.0,375000.0,302313.47,238198.52,375000.0,375000.0,,,,,
0.689,2979871,-9952.87,29495.4,375000.0,375000.0,302312.31,238193.9,375000.0,375000.0,,,,,
0.690,2979872,-9952.05,29491.74,375000.0,375000.0,302309.72,238194.18,375000.0,375000.0,,,,,
0.691,2979873,-9957.83,29486.75,375000.0,375000.0,302306.02,238199.25,375000.0,375000.0,,,,,
0.692,2979874,-9970.61,29480.29,375000.0,375000.0,302302.33,238206.16,375000.0,375000.0,,,,,
0.693,2979875,-9987.73,29472.59,375000.0,375000.0,302299.87,238210.84,375000.0,375000.0,,,,,
0.694,2979876,-10003.84,29464.47,375000.0,375000.0,302299.13,238210.25,375000.0,375000.0,,,,,
0.695,2979877,-10012.83,29457.29,375000.0,375000.0,302299.29,238203.96,375000.0,375000.0,,,,,
0.696,2979878,-10010.49,29452.51,375000.0,375000.0,302298.61,238194.19,375000.0,375000.0,,,,,
0.697,2979879,-9996.62,29451.24,375000.0,375000.0,302295.42,238184.61,375000.0,375000.0,,,,,
0.698,2979880,-9975.33,29453.67,375000.0,375000.0,302289.45,238178.53,375000.0,375000.0,,,,,
0.699,2979881,-9953.36,29458.94,375000.0,375000.0,302282.43,238177.54,375000.0,375000.0,,,,,
0.700,2979882,-9937.13,29465.45,375000.0,375000.0,302277.65,238181.16,375000.0,375000.0,,,,,
0.701,2979883,-9930.05,29471.53,375000.0,375000.0,302278.43,238187.47,375000.0,375000.0,,,,,
0.702,2979884,-9931.38,29476.18,375000.0,375000.0,302286.3,238194.18,375000.0,375000.0,,,,,
0.703,2979885,-9937.21,29479.52,375000.0,375000.0,302299.95,238199.53,375000.0,375000.0,,,,,
0.704,2979886,-9942.86,29482.59,375000.0,375000.0,302315.53,238202.63,375000.0,375000.0,,,,,
0.705,2979887,-9945.29,29486.6,375000.0,375000.0,302328.28,238203.4,375000.0,375000.0,,,,,
0.706,2979888,-9944.31,29492.0,375000.0,375000.0,302334.79,238202.29,375000.0,375000.0,,,,,
0.707,2979889,-9941.95,29497.83,375000.0,375000.0,302334.5,238200.05,375000.0,375000.0,,,,,
0.708,2979890,-9940.66,29501.91,375000.0,375000.0,302329.78,238197.71,375000.0,375000.0,,,,,
0.709,2979891,-9941.58,29501.83,375000.0,375000.0,302324.42,238196.44,375000.0,375000.0,,,,,
0.710,2979892,-9943.91,29496.31,375000.0,375000.0,302321.44,238197.15,375000.0,375000.0,,,,,
0.711,2979893,-9945.78,29486.32,375000.0,375000.0,302321.49,238200.04,375000.0,375000.0,,,,,
0.712,2979894,-9946.02,29475.04,375000.0,375000.0,302322.58,238204.2,375000.0,375000.0,,,,,
0.713,2979895,-9945.41,29466.76,375000.0,375000.0,302321.59,238207.91,375000.0,375000.0,,,,,
0.714,2979896,-9946.75,29464.79,375000.0,375000.0,302316.31,238209.55,375000.0,375000.0,,,,,
0.715,2979897,-9953.34,29469.63,375000.0,375000.0,302307.13,238208.74,375000.0,375000.0,,,,,
0.716,2979898,-9966.82,29478.3,375000.0,375000.0,302297.14,238207.17,375000.0,375000.0,,,,,
0.717,2979899,-9985.68,29485.3,375000.0,375000.0,302290.6,238208.18,375000.0,375000.0,,,,,
0.718,2979900,-10005.3,29485.1,375000.0,375000.0,302290.7,238215.24,375000.0,375000.0,,,,,
0.719,2979901,-10019.8,29474.89,375000.0,375000.0,302297.66,238229.79,375000.0,375000.0,,,,,
0.720,2979902,-10024.63,29456.33,375000.0,375000.0,302308.44,238249.56,375000.0,375000.0,,,,,
0.721,2979903,-10018.64,29435.31,375000.0,375000.0,302318.13,238268.59,375000.0,375000.0,,,,,
0.722,2979904,-10004.48,29419.67,375000.0,375000.0,302322.3,238279.16,375000.0,375000.0,,,,,
0.723,2979905,-9987.2,29415.87,375000.0,375000.0,302319.0,238274.95,375000.0,375000.0,,,,,
0.724,2979906,-9971.81,29426.17,375000.0,375000.0,302309.47,238254.08,375000.0,375000.0,,,,,
0.725,2979907,-9961.06,29447.65,375000.0,375000.0,302297.27,238220.46,375000.0,375000.0,,,,,
0.726,2979908,-9954.61,29473.62,375000.0,375000.0,302286.4,238182.63,375000.0,375000.0,,,,,
0.727,2979909,-9949.79,29496.55,375000.0,375000.0,302279.58,238150.6,375000.0,375000.0,,,,,
0.728,2979910,-9943.51,29511.25,375000.0,375000.0,302277.4,238132.03,375000.0,375000.0,,,,,
0.729,2979911,-9934.18,29516.65,375000.0,375000.0,302278.86,238129.54,375000.0,375000.0,,,,,
0.730,2979912,-9922.63,29515.46,375000.0,375000.0,302282.48,238140.26,375000.0,375000.0,,,,,
0.731,2979913,-9911.85,29512.1,375000.0,375000.0,302287.27,238157.75,375000.0,375000.0,,,,,
0.732,2979914,-9905.65,29510.05,375000.0,375000.0,302293.05,238175.08,375000.0,375000.0,,,,,
0.733,2979915,-9907.05,29510.1,375000.0,375000.0,302299.84,238187.6,375000.0,375000.0,,,,,
0.734,2979916,-9917.17,29510.43,375000.0,375000.0,302307.06,238194.13,375000.0,375000.0,,,,,
0.735,2979917,-9934.83,29508.13,375000.0,375000.0,302313.21,238196.31,375000.0,375000.0,,,,,
0.736,2979918,-9956.9,29501.37,375000.0,375000.0,302316.28,238196.69,375000.0,375000.0,,,,,
0.737,2979919,-9979.08,29490.74,375000.0,375000.0,302314.85,238196.89,375000.0,375000.0,,,,,
0.738,2979920,-9996.92,29479.06,375000.0,375000.0,302308.98,238196.81,375000.0,375000.0,,,,,
0.739,2979921,-10006.77,29469.85,375000.0,375000.0,302300.47,238195.13,375000.0,375000.0,,,,,
0.740,2979922,-10006.69,29465.41,375000.0,375000.0,302292.02,238190.6,375000.0,375000.0,,,,,
0.741,2979923,-9997.15,29465.56,375000.0,375000.0,302285.91,238183.23,375000.0,375000.0,,,,,
0.742,2979924,-9981.14,29467.95,375000.0,375000.0,302282.96,238174.68,375000.0,375000.0,,,,,
0.743,2979925,-9963.55,29469.49,375000.0,375000.0,302282.34,238167.45,375000.0,375000.0,,,,,
0.744,2979926,-9949.67,29468.22,375000.0,375000.0,302282.49,238163.68,375000.0,375000.0,,,,,
0.745,2979927,-9943.37,29464.32,375000.0,375000.0,302282.44,238164.14,375000.0,375000.0,,,,,
0.746,2979928,-9945.66,29459.85,375000.0,375000.0,302282.69,238167.94,375000.0,375000.0,,,,,
0.747,2979929,-9954.29,29457.23,375000.0,375000.0,302285.03,238173.26,375000.0,375000.0,,,,,
0.748,2979930,-9964.88,29457.56,375000.0,375000.0,302291.34,238178.39,375000.0,375000.0,,,,,
0.749,2979931,-9972.99,29459.78,375000.0,375000.0,302302.06,238182.52,375000.0,375000.0,,,,,
0.750,2979932,-9976.19,29461.13,375000.0,375000.0,302315.31,238185.82,375000.0,375000.0,,,,,
0.751,2979933,-9975.15,29458.72,375000.0,375000.0,302327.36,238188.91,375000.0,375000.0,,,,,
0.752,2979934,-9973.03,29451.28,375000.0,375000.0,302334.24,238192.01,375000.0,375000.0,,,,,
0.753,2979935,-9973.59,29439.96,375000.0,375000.0,302333.68,238194.54,375000.0,375000.0,,,,,
0.754,2979936,-9979.1,29427.85,375000.0,375000.0,302326.3,238195.33,375000.0,375000.0,,,,,
0.755,2979937,-9989.17,29418.38,375000.0,375000.0,302315.29,238193.46,375000.0,375000.0,,,,,
0.756,2979938,-10001.24,29413.58,375000.0,375000.0,302304.86,238188.96,375000.0,375000.0,,,,,
0.757,2979939,-10012.24,29413.19,375000.0,375000.0,302298.24,238183.21,375000.0,375000.0,,,,,
0.758,2979940,-10020.58,29415.07,375000.0,375000.0,302296.36,238178.4,375000.0,375000.0,,,,,
0.759,2979941,-10027.01,29416.59,375000.0,375000.0,302297.9,238176.58,375000.0,375000.0,,,,,
0.760,2979942,-10033.79,29416.21,375000.0,375000.0,302300.53,238178.63,375000.0,375000.0,,,,,
0.761,2979943,-10042.75,29414.24,375000.0,375000.0,302302.53,238183.8,375000.0,375000.0,,,,,
0.762,2979944,-10053.3,29412.42,375000.0,375000.0,302303.8,238190.14,375000.0,375000.0,,,,,
0.763,2979945,-10062.08,29412.55,375000.0,375000.0,302305.58,238195.42,375000.0,375000.0,,,,,
0.764,2979946,-10064.53,29415.08,375000.0,375000.0,302309.28,238198.27,375000.0,375000.0,,,,,
0.765,2979947,-10057.95,29418.43,375000.0,375000.0,302315.19,238198.73,375000.0,375000.0,,,,,
0.766,2979948,-10044.17,29419.49,375000.0,375000.0,302321.98,238198.12,375000.0,375000.0,,,,,
0.767,2979949,-10030.28,29415.02,375000.0,375000.0,302327.3,238198.23,375000.0,375000.0,,,,,
0.768,2979950,-10026.4,29403.25,375000.0,375000.0,302329.3,238200.33,375000.0,375000.0,,,,,
0.769,2979951,-10041.21,29384.89,375000.0,375000.0,302327.81,238204.51,375000.0,375000.0,,,,,
0.770,2979952,-10077.32,29363.0,375000.0,375000.0,302324.62,238209.68,375000.0,375000.0,,,,,
0.771,2979953,-10128.67,29342.06,375000.0,375000.0,302322.41,238214.16,375000.0,375000.0,,,,,
0.772,2979954,-10181.72,29326.45,375000.0,375000.0,302323.07,238216.47,375000.0,375000.0,,,,,
0.773,2979955,-10219.96,29319.21,375000.0,375000.0,302326.37,238215.96,375000.0,375000.0,,,,,
0.774,2979956,-10230.27,29321.31,375000.0,375000.0,302329.94,238212.9,375000.0,375000.0,,,,,
0.775,2979957,-10208.12,29331.52,375000.0,375000.0,302330.64,238208.2,375000.0,375000.0,,,,,
0.776,2979958,-10159.57,29346.85,375000.0,375000.0,302326.57,238202.9,375000.0,375000.0,,,,,
0.777,2979959,-10099.08,29363.25,375000.0,375000.0,302318.59,238197.77,375000.0,375000.0,,,,,
0.778,2979960,-10044.25,29376.47,375000.0,375000.0,302310.28,238193.35,375000.0,375000.0,,,,,
0.779,2979961,-10009.52,29383.05,375000.0,375000.0,302306.22,238190.13,375000.0,375000.0,,,,,
0.780,2979962,-10001.62,29381.27,375000.0,375000.0,302309.53,238188.79,375000.0,375000.0,,,,,
0.781,2979963,-10018.14,29371.72,375000.0,375000.0,302319.89,238190.17,375000.0,375000.0,,,,,
0.782,2979964,-10049.67,29357.25,375000.0,375000.0,302333.3,238194.83,375000.0,375000.0,,,,,
0.783,2979965,-10084.16,29342.1,375000.0,375000.0,302343.75,238202.43,375000.0,375000.0,,,,,
0.784,2979966,-10111.64,29330.3,375000.0,375000.0,302346.06,238211.36,375000.0,375000.0,,,,,
0.785,2979967,-10127.45,29324.17,375000.0,375000.0,302338.35,238218.96,375000.0,375000.0,,,,,
0.786,2979968,-10132.92,29323.42,375000.0,375000.0,302323.07,238222.38,375000.0,375000.0,,,,,
0.787,2979969,-10133.62,29325.45,375000.0,375000.0,302305.86,238219.92,375000.0,375000.0,,,,,
0.788,2979970,-10136.04,29326.83,375000.0,375000.0,302293.02,238212.01,375000.0,375000.0,,,,,
0.789,2979971,-10144.34,29325.15,375000.0,375000.0,302288.72,238201.46,375000.0,375000.0,,,,,
0.790,2979972,-10158.36,29320.32,375000.0,375000.0,302293.33,238192.41,375000.0,375000.0,,,,,
0.791,2979973,-10173.68,29314.53,375000.0,375000.0,302303.59,238188.56,375000.0,375000.0,,,,,
0.792,2979974,-10183.75,29310.87,375000.0,375000.0,302314.27,238191.27,375000.0,375000.0,,,,,
0.793,2979975,-10182.97,29311.34,375000.0,375000.0,302320.46,238198.65,375000.0,375000.0,,,,,
0.794,2979976,-10169.63,29315.37,375000.0,375000.0,302319.5,238206.3,375000.0,375000.0,,,,,
0.795,2979977,-10147.09,29319.68,375000.0,375000.0,302311.57,238209.42,375000.0,375000.0,,,,,
0.796,2979978,-10122.82,29319.84,375000.0,375000.0,302299.08,238205.5,375000.0,375000.0,,,,,
0.797,2979979,-10105.32,29312.58,375000.0,375000.0,302285.4,238196.14,375000.0,375000.0,,,,,
0.798,2979980,-10100.41,29297.77,375000.0,375000.0,302273.49,238186.85,375000.0,375000.0,,,,,
0.799,2979981,-10108.5,29278.83,375000.0,375000.0,302265.16,238184.79,375000.0,375000.0,,,,,
0.800,2979982,-10124.29,29261.44,375000.0,375000.0,302260.91,238195.11,375000.0,375000.0,,,,,
0.801,2979983,-10139.25,29251.02,375000.0,375000.0,302260.38,238217.78,375000.0,375000.0,,,,,
0.802,2979984,-10145.79,29250.39,375000.0,375000.0,302262.75,238246.58,375000.0,375000.0,,,,,
0.803,2979985,-10141.2,29258.57,375000.0,375000.0,302267.04,238270.96,375000.0,375000.0,,,,,
0.804,2979986,-10129.23,29271.42,375000.0,375000.0,302272.19,238280.23,375000.0,375000.0,,,,,
0.805,2979987,-10118.39,29283.6,375000.0,375000.0,302277.02,238268.23,375000.0,375000.0,,,,,
0.806,2979988,-10117.63,29290.82,375000.0,375000.0,302280.27,238236.28,375000.0,375000.0,,,,,
0.807,2979989,-10131.44,29291.32,375000.0,375000.0,302280.82,238192.95,375000.0,375000.0,,,,,
0.808,2979990,-10157.04,29286.0,375000.0,375000.0,302278.01,238150.55,375000.0,375000.0,,,,,
0.809,2979991,-10185.19,29277.39,375000.0,375000.0,302271.97,238120.14,375000.0,375000.0,,,,,
0.810,2979992,-10204.51,29268.14,375000.0,375000.0,302263.78,238107.16,375000.0,375000.0,,,,,
0.811,2979993,-10207.14,29259.93,375000.0,375000.0,302255.36,238109.86,375000.0,375000.0,,,,,
0.812,2979994,-10192.86,29253.07,375000.0,375000.0,302249.1,238121.04,375000.0,375000.0,,,,,
0.813,2979995,-10169.36,29246.93,375000.0,375000.0,302247.18,238132.13,375000.0,375000.0,,,,,
0.814,2979996,-10148.47,29240.62,375000.0,375000.0,302250.88,238137.35,375000.0,375000.0,,,,,
0.815,2979997,-10140.05,29233.57,375000.0,375000.0,302259.98,238136.01,375000.0,375000.0,,,,,
0.816,2979998,-10146.86,29225.77,375000.0,375000.0,302272.54,238131.87,375000.0,375000.0,,,,,
0.817,2979999,-10163.1,29217.72,375000.0,375000.0,302285.26,238130.23,375000.0,375000.0,,,,,
0.818,2980000,-10177.59,29210.34,375000.0,375000.0,302294.45,238134.5,375000.0,375000.0,,,,,
0.819,2980001,-10179.95,29204.73,375000.0,375000.0,302297.3,238144.28,375000.0,375000.0,,,,,
0.820,2980002,-10166.55,29201.94,375000.0,375000.0,302293.05,238155.68,375000.0,375000.0,,,,,
0.821,2980003,-10143.11,29202.47,375000.0,375000.0,302283.4,238163.8,375000.0,375000.0,,,,,
0.822,2980004,-10122.32,29205.68,375000.0,375000.0,302271.96,238165.45,375000.0,375000.0,,,,,
0.823,2980005,-10117.7,29209.39,375000.0,375000.0,302262.78,238160.85,375000.0,375000.0,,,,,
0.824,2980006,-10136.67,29210.23,375000.0,375000.0,302258.7,238153.08,375000.0,375000.0,,,,,
0.825,2980007,-10176.48,29204.7,375000.0,375000.0,302260.1,238146.02,375000.0,375000.0,,,,,
0.826,2980008,-10225.09,29190.86,375000.0,375000.0,302264.83,238141.98,375000.0,375000.0,,,,,
0.827,2980009,-10266.48,29169.76,375000.0,375000.0,302269.31,238140.49,375000.0,375000.0,,,,,
0.828,2980010,-10287.8,29145.66,375000.0,375000.0,302270.35,238139.07,375000.0,375000.0,,,,,
0.829,2980011,-10284.75,29124.74,375000.0,375000.0,302266.63,238135.17,375000.0,375000.0,,,,,
0.830,2980012,-10262.62,29112.48,375000.0,375000.0,302259.37,238128.27,375000.0,375000.0,,,,,
0.831,2980013,-10232.84,29111.18,375000.0,375000.0,302251.56,238120.49,375000.0,375000.0,,,,,
0.832,2980014,-10206.91,29118.63,375000.0,375000.0,302246.49,238115.54,375000.0,375000.0,,,,,
0.833,2980015,-10191.2,29129.06,375000.0,375000.0,302246.19,238116.41,375000.0,375000.0,,,,,
0.834,2980016,-10185.05,29135.83,375000.0,375000.0,302250.66,238123.48,375000.0,375000.0,,,,,
0.835,2980017,-10182.99,29134.68,375000.0,375000.0,302258.2,238134.04,375000.0,375000.0,,,,,
0.836,2980018,-10179.42,29125.74,375000.0,375000.0,302266.48,238143.68,375000.0,375000.0,,,,,
0.837,2980019,-10172.96,29113.25,375000.0,375000.0,302273.71,238148.74,375000.0,375000.0,,,,,
0.838,2980020,-10167.96,29103.1,375000.0,375000.0,302279.18,238148.23,375000.0,375000.0,,,,,
0.839,2980021,-10172.11,29099.61,375000.0,375000.0,302283.04,238144.28,375000.0,375000.0,,,,,
0.840,2980022,-10191.7,29103.28,375000.0,375000.0,302285.63,238140.67,375000.0,375000.0,,,,,
0.841,2980023,-10227.0,29110.81,375000.0,375000.0,302286.9,238140.51,375000.0,375000.0,,,,,
0.842,2980024,-10270.47,29117.17,375000.0,375000.0,302286.46,238144.4,375000.0,375000.0,,,,,
0.843,2980025,-10309.13,29118.58,375000.0,375000.0,302284.14,238150.22,375000.0,375000.0,,,,,
0.844,2980026,-10329.87,29114.39,375000.0,375000.0,302280.59,238154.58,375000.0,375000.0,,,,,
0.845,2980027,-10325.43,29106.92,375000.0,375000.0,302277.39,238155.05,375000.0,375000.0,,,,,
0.846,2980028,-10297.92,29099.31,375000.0,375000.0,302276.34,238151.71,375000.0,375000.0,,,,,
0.847,2980029,-10258.19,29093.08,375000.0,375000.0,302278.41,238147.02,375000.0,375000.0,,,,,
0.848,2980030,-10221.27,29086.9,375000.0,375000.0,302282.82,238144.27,375000.0,375000.0,,,,,
0.849,2980031,-10200.02,29077.65,375000.0,375000.0,302287.23,238145.42,375000.0,375000.0,,,,,
0.850,2980032,-10199.95,29063.13,375000.0,375000.0,302288.95,238149.88,375000.0,375000.0,,,,,
0.851,2980033,-10217.52,29044.51,375000.0,375000.0,302286.55,238154.97,375000.0,375000.0,,,,,
0.852,2980034,-10242.59,29026.76,375000.0,375000.0,302281.02,238157.71,375000.0,375000.0,,,,,
0.853,2980035,-10263.65,29016.33,375000.0,375000.0,302275.5,238156.81,375000.0,375000.0,,,,,
0.854,2980036,-10273.26,29016.96,375000.0,375000.0,302273.62,238153.55,375000.0,375000.0,,,,,
0.855,2980037,-10271.19,29026.35,375000.0,375000.0,302277.32,238150.93,375000.0,375000.0,,,,,
0.856,2980038,-10263.8,29035.78,375000.0,375000.0,302285.41,238151.62,375000.0,375000.0,,,,,
0.857,2980039,-10260.29,29033.6,375000.0,375000.0,302293.88,238155.98,375000.0,375000.0,,,,,
0.858,2980040,-10267.69,29011.28,375000.0,375000.0,302297.84,238161.58,375000.0,375000.0,,,,,
0.859,2980041,-10287.15,28968.78,375000.0,375000.0,302294.28,238164.54,375000.0,375000.0,,,,,
0.860,2980042,-10313.34,28916.31,375000.0,375000.0,302283.86,238161.92,375000.0,375000.0,,,,,
0.861,2980043,-10336.89,28870.99,375000.0,375000.0,302270.8,238153.82,375000.0,375000.0,,,,,
0.862,2980044,-10348.88,28849.72,375000.0,375000.0,302260.72,238143.61,375000.0,375000.0,,,,,
0.863,2980045,-10344.77,28861.62,375000.0,375000.0,302257.68,238136.26,375000.0,375000.0,,,,,
0.864,2980046,-10326.16,28903.73,375000.0,375000.0,302262.14,238135.56,375000.0,375000.0,,,,,
0.865,2980047,-10299.56,28962.24,375000.0,375000.0,302270.95,238141.92,375000.0,375000.0,,,,,
0.866,2980048,-10273.1,29018.45,375000.0,375000.0,302279.48,238152.15,375000.0,375000.0,,,,,
0.867,2980049,-10252.95,29056.67,375000.0,375000.0,302284.59,238161.33,375000.0,375000.0,,,,,
0.868,2980050,-10241.34,29070.0,375000.0,375000.0,302286.47,238165.71,375000.0,375000.0,,,,,
0.869,2980051,-10237.1,29061.56,375000.0,375000.0,302288.38,238164.79,375000.0,375000.0,,,,,
0.870,2980052,-10237.87,29041.03,375000.0,375000.0,302294.15,238161.43,375000.0,375000.0,,,,,
0.871,2980053,-10242.64,29018.84,375000.0,375000.0,302305.07,238159.75,375000.0,375000.0,,,,,
0.872,2980054,-10252.74,29001.24,375000.0,375000.0,302318.15,238162.29,375000.0,375000.0,,,,,
0.873,2980055,-10270.58,28988.71,375000.0,375000.0,302326.96,238168.12,375000.0,375000.0,,,,,
0.874,2980056,-10296.92,28977.88,375000.0,375000.0,302324.94,238173.26,375000.0,375000.0,,,,,
0.875,2980057,-10328.43,28965.23,375000.0,375000.0,302309.18,238173.11,375000.0,375000.0,,,,,
0.876,2980058,-10357.32,28950.03,375000.0,375000.0,302282.78,238165.61,375000.0,375000.0,,,,,
0.877,2980059,-10373.96,28934.59,375000.0,375000.0,302253.97,238152.95,375000.0,375000.0,,,,,
0.878,2980060,-10371.33,28922.13,375000.0,375000.0,302232.51,238140.8,375000.0,375000.0,,,,,
0.879,2980061,-10349.11,28913.85,375000.0,375000.0,302225.11,238135.33,375000.0,375000.0,,,,,
0.880,2980062,-10315.07,28907.54,375000.0,375000.0,302232.34,238139.65,375000.0,375000.0,,,,,
0.881,2980063,-10282.38,28898.82,375000.0,375000.0,302248.76,238151.96,375000.0,375000.0,,,,,
0.882,2980064,-10263.93,28884.44,375000.0,375000.0,302265.99,238166.37,375000.0,375000.0,,,,,
0.883,2980065,-10266.2,28865.46,375000.0,375000.0,302277.16,238176.15,375000.0,375000.0,,,,,
0.884,2980066,-10285.97,28848.12,375000.0,375000.0,302280.05,238177.49,375000.0,375000.0,,,,,
0.885,2980067,-10311.61,28841.35,375000.0,375000.0,302277.37,238171.46,375000.0,375000.0,,,,,
0.886,2980068,-10328.71,28852.07,375000.0,375000.0,302274.19,238163.17,375000.0,375000.0,,,,,
0.887,2980069,-10327.33,28880.73,375000.0,375000.0,302274.21,238158.49,375000.0,375000.0,,,,,
0.888,2980070,-10307.05,28919.81,375000.0,375000.0,302277.24,238160.33,375000.0,375000.0,,,,,
0.889,2980071,-10277.33,28956.4,375000.0,375000.0,302279.36,238166.86,375000.0,375000.0,,,,,
0.890,2980072,-10252.79,28977.76,375000.0,375000.0,302275.7,238172.57,375000.0,375000.0,,,,,
0.891,2980073,-10245.81,28977.21,375000.0,375000.0,302263.96,238171.76,375000.0,375000.0,,,,,
0.892,2980074,-10260.22,28957.22,375000.0,375000.0,302246.53,238162.21,375000.0,375000.0,,,,,
0.893,2980075,-10289.54,28928.16,375000.0,375000.0,302229.77,238146.81,375000.0,375000.0,,,,,
0.894,2980076,-10320.47,28903.26,375000.0,375000.0,302220.8,238132.12,375000.0,375000.0,,,,,
0.895,2980077,-10339.97,28892.35,375000.0,375000.0,302223.66,238124.56,375000.0,375000.0,,,,,
0.896,2980078,-10342.11,28897.45,375000.0,375000.0,302237.0,238126.62,375000.0,375000.0,,,,,
0.897,2980079,-10330.96,28912.18,375000.0,375000.0,302254.88,238135.25,375000.0,375000.0,,,,,
0.898,2980080,-10318.24,28925.27,375000.0,375000.0,302269.99,238143.66,375000.0,375000.0,,,,,
0.899,2980081,-10316.8,28926.02,375000.0,375000.0,302277.52,238145.47,375000.0,375000.0,,,,,
0.900,2980082,-10333.62,28909.35,375000.0,375000.0,302277.5,238138.82,375000.0,375000.0,,,,,
0.901,2980083,-10365.76,28877.91,375000.0,375000.0,302274.18,238127.99,375000.0,375000.0,,,,,
0.902,2980084,-10401.63,28840.8,375000.0,375000.0,302273.05,238121.33,375000.0,375000.0,,,,,
0.903,2980085,-10426.45,28809.64,375000.0,375000.0,302277.26,238126.66,375000.0,375000.0,,,,,
0.904,2980086,-10429.16,28794.0,375000.0,375000.0,302285.75,238146.58,375000.0,375000.0,,,,,
0.905,2980087,-10407.16,28798.1,375000.0,375000.0,302293.99,238176.31,375000.0,375000.0,,,,,
0.906,2980088,-10366.7,28819.83,375000.0,375000.0,302296.91,238205.47,375000.0,375000.0,,,,,
0.907,2980089,-10319.19,28852.06,375000.0,375000.0,302292.21,238222.89,375000.0,375000.0,,,,,
0.908,2980090,-10275.65,28885.42,375000.0,375000.0,302281.8,238221.83,375000.0,375000.0,,,,,
0.909,2980091,-10242.65,28911.36,375000.0,375000.0,302270.75,238203.04,375000.0,375000.0,,,,,
0.910,2980092,-10221.26,28924.57,375000.0,375000.0,302264.2,238173.99,375000.0,375000.0,,,,,
0.911,2980093,-10209.3,28924.04,375000.0,375000.0,302264.25,238144.98,375000.0,375000.0,,,,,
0.912,2980094,-10204.62,28912.86,375000.0,375000.0,302268.79,238124.24,375000.0,375000.0,,,,,
0.913,2980095,-10207.14,28896.81,375000.0,375000.0,302272.86,238114.66,375000.0,375000.0,,,,,
0.914,2980096,-10218.21,28882.16,375000.0,375000.0,302271.87,238113.59,375000.0,375000.0,,,,,
0.915,2980097,-10238.01,28873.56,375000.0,375000.0,302264.55,238115.53,375000.0,375000.0,,,,,
0.916,2980098,-10262.79,28872.5,375000.0,375000.0,302253.9,238115.77,375000.0,375000.0,,,,,
0.917,2980099,-10284.58,28877.06,375000.0,375000.0,302245.38,238112.88,375000.0,375000.0,,,,,
0.918,2980100,-10294.05,28883.05,375000.0,375000.0,302243.61,238108.8,375000.0,375000.0,,,,,
0.919,2980101,-10285.49,28886.1,375000.0,375000.0,302249.34,238106.71,375000.0,375000.0,,,,,
0.920,2980102,-10260.96,28883.73,375000.0,375000.0,302258.78,238108.44,375000.0,375000.0,,,,,
0.921,2980103,-10231.04,28876.44,375000.0,375000.0,302265.63,238112.92,375000.0,375000.0,,,,,
0.922,2980104,-10210.79,28867.19,375000.0,375000.0,302264.77,238116.86,375000.0,375000.0,,,,,
0.923,2980105,-10212.52,28859.73,375000.0,375000.0,302255.41,238116.92,375000.0,375000.0,,,,,
0.924,2980106,-10238.64,28856.56,375000.0,375000.0,302241.86,238112.14,375000.0,375000.0,,,,,
0.925,2980107,-10278.46,28857.76,375000.0,375000.0,302231.34,238104.79,375000.0,375000.0,,,,,
0.926,2980108,-10310.92,28861.4,375000.0,375000.0,302230.1,238099.31,375000.0,375000.0,,,,,
0.927,2980109,-10312.61,28865.26,375000.0,375000.0,302239.89,238099.68,375000.0,375000.0,,,,,
0.928,2980110,-10267.56,28868.68,375000.0,375000.0,302256.87,238107.02,375000.0,375000.0,,,,,
0.929,2980111,-10174.52,28873.39,375000.0,375000.0,302273.45,238118.69,375000.0,375000.0,,,,,
0.929,2980111,-10048.23,28882.67,375000.0,375000.0,302282.13,238129.57,375000.0,375000.0,,,,,
1.087,2980269,-9914.24,28899.04,375000.0,375000.0,302279.17,238134.69,375000.0,375000.0,,,,,
1.088,2980270,-9799.4,28922.07,375000.0,375000.0,302266.3,238131.92,375000.0,375000.0,,,,,
1.089,2980271,-9722.39,28947.5,375000.0,375000.0,302249.55,238122.95,375000.0,375000.0,,,,,
1.090,2980272,-9688.11,28968.65,375000.0,375000.0,302236.13,238112.38,375000.0,375000.0,,,,,
1.091,2980273,-9688.08,28979.43,375000.0,375000.0,302231.05,238105.31,375000.0,375000.0,,,,,
1.092,2980274,-9706.01,28977.47,375000.0,375000.0,302235.26,238104.88,375000.0,375000.0,,,,,
1.093,2980275,-9725.57,28965.58,375000.0,375000.0,302246.02,238111.0,375000.0,375000.0,,,,,
1.094,2980276,-9736.83,28950.63,375000.0,375000.0,302258.96,238120.87,375000.0,375000.0,,,,,
1.095,2980277,-9738.64,28940.39,375000.0,375000.0,302270.45,238130.66,375000.0,375000.0,,,,,
1.096,2980278,-9736.54,28939.84,375000.0,375000.0,302278.96,238137.49,375000.0,375000.0,,,,,
1.097,2980279,-9737.83,28949.06,375000.0,375000.0,302284.84,238140.35,375000.0,375000.0,,,,,
1.098,2980280,-9746.47,28963.68,375000.0,375000.0,302288.99,238139.97,375000.0,375000.0,,,,,
1.099,2980281,-9760.37,28977.55,375000.0,375000.0,302291.54,238137.69,375000.0,375000.0,,,,,
1.100,2980282,-9772.16,28986.19,375000.0,375000.0,302291.46,238134.43,375000.0,375000.0,,,,,
1.101,2980283,-9772.87,28988.91,375000.0,375000.0,302287.35,238130.28,375000.0,375000.0,,,,,
1.102,2980284,-9756.54,28988.65,375000.0,375000.0,302278.76,238125.01,375000.0,375000.0,,,,,
1.103,2980285,-9723.63,28989.61,375000.0,375000.0,302267.15,238118.79,375000.0,375000.0,,,,,
1.104,2980286,-9681.56,28994.39,375000.0,375000.0,302255.64,238112.75,375000.0,375000.0,,,,,
1.105,2980287,-9642.25,29002.21,375000.0,375000.0,302247.72,238108.69,375000.0,375000.0,,,,,
1.106,2980288,-9617.65,29009.29,375000.0,375000.0,302245.57,238108.17,375000.0,375000.0,,,,,
1.107,2980289,-9615.17,29011.16,375000.0,375000.0,302248.92,238111.6,375000.0,375000.0,,,,,
1.108,2980290,-9634.83,29005.43,375000.0,375000.0,302255.28,238117.82,375000.0,375000.0,,,,,
1.109,2980291,-9669.25,28993.27,375000.0,375000.0,302261.26,238124.65,375000.0,375000.0,,,,,
1.110,2980292,-9706.38,28978.9,375000.0,375000.0,302264.25,238129.94,375000.0,375000.0,,,,,
1.111,2980293,-9733.99,28967.31,375000.0,375000.0,302263.61,238132.6,375000.0,375000.0,,,,,
1.112,2980294,-9743.95,28961.57,375000.0,375000.0,302260.74,238132.98,375000.0,375000.0,,,,,
1.113,2980295,-9734.88,28961.48,375000.0,375000.0,302258.02,238132.35,375000.0,375000.0,,,,,
1.114,2980296,-9712.06,28964.07,375000.0,375000.0,302257.43,238131.99,375000.0,375000.0,,,,,
1.115,2980297,-9684.85,28965.75,375000.0,375000.0,302259.59,238132.29,375000.0,375000.0,,,,,
1.116,2980298,-9662.7,28964.7,375000.0,375000.0,302263.64,238132.64,375000.0,375000.0,,,,,
1.117,2980299,-9651.48,28961.99,375000.0,375000.0,302268.01,238132.0,375000.0,375000.0,,,,,
1.118,2980300,-9651.59,28960.98,375000.0,375000.0,302271.37,238129.83,375000.0,375000.0,,,,,
1.119,2980301,-9658.57,28965.25,375000.0,375000.0,302273.3,238126.66,375000.0,375000.0,,,,,
1.120,2980302,-9665.7,28976.41,375000.0,375000.0,302274.2,238123.93,375000.0,375000.0,,,,,
1.121,2980303,-9667.41,28993.06,375000.0,375000.0,302274.8,238123.15,375000.0,375000.0,,,,,
1.122,2980304,-9661.78,29011.41,375000.0,375000.0,302275.47,238124.95,375000.0,375000.0,,,,,
1.123,2980305,-9651.17,29027.04,375000.0,375000.0,302276.08,238128.58,375000.0,375000.0,,,,,
1.124,2980306,-9640.67,29036.82,375000.0,375000.0,302276.18,238132.28,375000.0,375000.0,,,,,
1.125,2980307,-9635.42,29039.8,375000.0,375000.0,302275.61,238134.31,375000.0,375000.0,,,,,
1.126,2980308,-9638.05,29036.86,375000.0,375000.0,302274.84,238134.09,375000.0,375000.0,,,,,
1.127,2980309,-9647.6,29029.5,375000.0,375000.0,302274.85,238132.6,375000.0,375000.0,,,,,
1.128,2980310,-9660.26,29018.72,375000.0,375000.0,302276.62,238131.88,375000.0,375000.0,,,,,
1.129,2980311,-9671.5,29004.87,375000.0,375000.0,302280.37,238133.85,375000.0,375000.0,,,,,
1.130,2980312,-9678.3,28988.33,375000.0,375000.0,302285.3,238139.05,375000.0,375000.0,,,,,
1.131,2980313,-9680.34,28970.59,375000.0,375000.0,302289.83,238146.2,375000.0,375000.0,,,,,
1.132,2980314,-9679.45,28954.75,375000.0,375000.0,302292.32,238152.74,375000.0,375000.0,,,,,
1.133,2980315,-9677.98,28944.88,375000.0,375000.0,302292.02,238156.16,375000.0,375000.0,,,,,
1.134,2980316,-9676.89,28944.43,375000.0,375000.0,302289.41,238155.34,375000.0,375000.0,,,,,
1.135,2980317,-9674.94,28954.59,375000.0,375000.0,302286.1,238151.23,375000.0,375000.0,,,,,
1.136,2980318,-9669.44,28973.33,375000.0,375000.0,302284.02,238146.32,375000.0,375000.0,,,,,
1.137,2980319,-9658.22,28995.87,375000.0,375000.0,302284.55,238143.41,375000.0,375000.0,,,,,
1.138,2980320,-9641.78,29016.22,375000.0,375000.0,302287.91,238144.15,375000.0,375000.0,,,,,
1.139,2980321,-9624.04,29029.2,375000.0,375000.0,302293.11,238148.27,375000.0,375000.0,,,,,
1.140,2980322,-9611.35,29031.82,375000.0,375000.0,302298.55,238153.82,375000.0,375000.0,,,,,
1.141,2980323,-9609.69,29023.87,375000.0,375000.0,302302.71,238158.23,375000.0,375000.0,,,,,
1.142,2980324,-9621.57,29007.43,375000.0,375000.0,302304.81,238159.65,375000.0,375000.0,,,,,
1.143,2980325,-9644.12,28986.06,375000.0,375000.0,302304.98,238157.78,375000.0,375000.0,,,,,
1.144,2980326,-9669.55,28964.0,375000.0,375000.0,302304.02,238153.85,375000.0,375000.0,,,,,
1.145,2980327,-9688.0,28945.46,375000.0,375000.0,302302.93,238149.84,375000.0,375000.0,,,,,
1.146,2980328,-9691.62,28934.05,375000.0,375000.0,302302.41,238147.46,375000.0,375000.0,,,,,
1.147,2980329,-9678.08,28931.87,375000.0,375000.0,302302.59,238147.38,375000.0,375000.0,,,,,
1.148,2980330,-9651.84,28938.63,375000.0,375000.0,302303.05,238149.12,375000.0,375000.0,,,,,
1.149,2980331,-9622.5,28951.16,375000.0,375000.0,302303.01,238151.51,375000.0,375000.0,,,,,
1.150,2980332,-9600.91,28963.89,375000.0,375000.0,302301.63,238153.46,375000.0,375000.0,,,,,
1.151,2980333,-9594.67,28970.78,375000.0,375000.0,302298.37,238154.41,375000.0,375000.0,,,,,
1.152,2980334,-9605.11,28967.95,375000.0,375000.0,302293.2,238154.52,375000.0,375000.0,,,,,
1.153,2980335,-9627.02,28955.92,375000.0,375000.0,302286.71,238154.32,375000.0,375000.0,,,,,
1.154,2980336,-9651.24,28940.1,375000.0,375000.0,302280.11,238154.35,375000.0,375000.0,,,,,
1.155,2980337,-9668.85,28928.77,375000.0,375000.0,302274.91,238154.85,375000.0,375000.0,,,,,
1.156,2980338,-9675.19,28929.22,375000.0,375000.0,302272.44,238155.7,375000.0,375000.0,,,,,
1.157,2980339,-9671.68,28943.72,375000.0,375000.0,302273.38,238156.56,375000.0,375000.0,,,,,
1.158,2980340,-9664.87,28967.43,375000.0,375000.0,302277.39,238157.06,375000.0,375000.0,,,,,
1.159,2980341,-9663.12,28989.64,375000.0,375000.0,302283.02,238156.8,375000.0,375000.0,,,,,
1.160,2980342,-9672.43,28998.16,375000.0,375000.0,302288.17,238155.42,375000.0,375000.0,,,,,
1.161,2980343,-9693.34,28985.01,375000.0,375000.0,302290.73,238152.63,375000.0,375000.0,,,,,
1.162,2980344,-9720.33,28950.72,375000.0,375000.0,302289.36,238148.36,375000.0,375000.0,,,,,
1.163,2980345,-9743.8,28904.96,375000.0,375000.0,302283.99,238143.04,375000.0,375000.0,,,,,
1.164,2980346,-9753.88,28863.02,375000.0,375000.0,302275.91,238137.75,375000.0,375000.0,,,,,
1.165,2980347,-9744.31,28839.63,375000.0,375000.0,302267.29,238134.03,375000.0,375000.0,,,,,
1.166,2980348,-9714.8,28842.89,375000.0,375000.0,302260.49,238133.37,375000.0,375000.0,,,,,
1.167,2980349,-9671.01,28871.06,375000.0,375000.0,302257.31,238136.41,375000.0,375000.0,,,,,
1.168,2980350,-9622.4,28913.72,375000.0,375000.0,302258.39,238142.46,375000.0,375000.0,,,,,
1.169,2980351,-9578.81,28956.59,375000.0,375000.0,302263.12,238149.41,375000.0,375000.0,,,,,
1.170,2980352,-9547.51,28987.61,375000.0,375000.0,302269.77,238154.45,375000.0,375000.0,,,,,
1.171,2980353,-9531.6,29001.45,375000.0,375000.0,302276.06,238155.19,375000.0,375000.0,,,,,
1.172,2980354,-9530.21,29000.49,375000.0,375000.0,302279.76,238150.73,375000.0,375000.0,,,,,
1.173,2980355,-9540.14,28992.1,375000.0,375000.0,302279.34,238142.14,375000.0,375000.0,,,,,
1.174,2980356,-9557.76,28983.93,375000.0,375000.0,302274.43,238132.03,375000.0,375000.0,,,,,
1.175,2980357,-9580.36,28979.63,375000.0,375000.0,302265.93,238123.37,375000.0,375000.0,,,,,
1.176,2980358,-9606.29,28977.19,375000.0,375000.0,302255.82,238118.2,375000.0,375000.0,,,,,
1.177,2980359,-9634.26,28970.55,375000.0,375000.0,302246.49,238116.79,375000.0,375000.0,,,,,
1.178,2980360,-9662.23,28953.55,375000.0,375000.0,302240.0,238117.72,375000.0,375000.0,,,,,
1.179,2980361,-9686.91,28924.02,375000.0,375000.0,302237.35,238118.89,375000.0,375000.0,,,,,
1.180,2980362,-9704.14,28886.08,375000.0,375000.0,302238.21,238118.81,375000.0,375000.0,,,,,
1.181,2980363,-9710.19,28849.2,375000.0,375000.0,302241.21,238117.56,375000.0,375000.0,,,,,
1.182,2980364,-9703.39,28824.7,375000.0,375000.0,302244.7,238116.78,375000.0,375000.0,,,,,
1.183,2980365,-9685.11,28821.06,375000.0,375000.0,302247.56,238118.79,375000.0,375000.0,,,,,
1.184,2980366,-9659.72,28840.24,375000.0,375000.0,302249.76,238125.21,375000.0,375000.0,,,,,
1.185,2980367,-9633.24,28876.68,375000.0,375000.0,302252.27,238135.77,375000.0,375000.0,,,,,
1.186,2980368,-9611.37,28919.32,375000.0,375000.0,302256.32,238148.13,375000.0,375000.0,,,,,
1.187,2980369,-9597.57,28955.78,375000.0,375000.0,302262.51,238158.69,375000.0,375000.0,,,,,
1.188,2980370,-9592.16,28977.0,375000.0,375000.0,302270.18,238164.06,375000.0,375000.0,,,,,
1.189,2980371,-9592.77,28980.22,375000.0,375000.0,302277.53,238162.58,375000.0,375000.0,,,,,
1.190,2980372,-9595.84,28969.39,375000.0,375000.0,302282.39,238154.97,375000.0,375000.0,,,,,
1.191,2980373,-9598.48,28952.67,375000.0,375000.0,302283.36,238144.01,375000.0,375000.0,,,,,
1.192,2980374,-9599.82,28938.56,375000.0,375000.0,302280.63,238133.31,375000.0,375000.0,,,,,
1.193,2980375,-9601.11,28932.14,375000.0,375000.0,302275.97,238125.75,375000.0,375000.0,,,,,
1.194,2980376,-9604.66,28933.27,375000.0,375000.0,302271.97,238122.5,375000.0,375000.0,,,,,
1.195,2980377,-9612.19,28937.4,375000.0,375000.0,302270.78,238122.86,375000.0,375000.0,,,,,
1.196,2980378,-9623.4,28938.42,375000.0,375000.0,302273.1,238124.92,375000.0,375000.0,,,,,
1.197,2980379,-9635.73,28932.21,375000.0,375000.0,302277.94,238126.76,375000.0,375000.0,,,,,
1.198,2980380,-9645.42,28918.97,375000.0,375000.0,302283.25,238127.38,375000.0,375000.0,,,,,
1.199,2980381,-9649.38,28903.25,375000.0,375000.0,302287.0,238127.01,375000.0,375000.0,,,,,
1.200,2980382,-9646.99,28891.53,375000.0,375000.0,302288.22,238126.72,375000.0,375000.0,,,,,
1.201,2980383,-9640.79,28888.81,375000.0,375000.0,302287.27,238127.58,375000.0,375000.0,,,,,
1.202,2980384,-9635.59,28895.65,375000.0,375000.0,302285.35,238129.94,375000.0,375000.0,,,,,
1.203,2980385,-9636.32,28907.66,375000.0,375000.0,302283.61,238133.13,375000.0,375000.0,,,,,
1.204,2980386,-9645.62,28917.41,375000.0,375000.0,302282.38,238135.83,375000.0,375000.0,,,,,
1.205,2980387,-9662.39,28918.16,375000.0,375000.0,302281.11,238136.79,375000.0,375000.0,,,,,
1.206,2980388,-9682.12,28907.31,375000.0,375000.0,302278.87,238135.48,375000.0,375000.0,,,,,
1.207,2980389,-9698.76,28887.96,375000.0,375000.0,302275.21,238132.46,375000.0,375000.0,,,,,
1.208,2980390,-9707.43,28867.56,375000.0,375000.0,302270.73,238129.02,375000.0,375000.0,,,,,
1.209,2980391,-9706.44,28854.36,375000.0,375000.0,302266.92,238126.59,375000.0,375000.0,,,,,
1.210,2980392,-9697.77,28853.49,375000.0,375000.0,302265.41,238126.02,375000.0,375000.0,,,,,
1.211,2980393,-9685.67,28864.61,375000.0,375000.0,302267.03,238127.16,375000.0,375000.0,,,,,
1.212,2980394,-9674.31,28882.29,375000.0,375000.0,302271.31,238129.06,375000.0,375000.0,,,,,
1.213,2980395,-9665.67,28898.92,375000.0,375000.0,302276.68,238130.48,375000.0,375000.0,,,,,
1.214,2980396,-9658.86,28908.51,375000.0,375000.0,302281.34,238130.64,375000.0,375000.0,,,,,
1.215,2980397,-9651.21,28909.41,375000.0,375000.0,302284.24,238129.61,375000.0,375000.0,,,,,
1.216,2980398,-9640.33,28904.52,375000.0,375000.0,302285.51,238128.34,375000.0,375000.0,,,,,
1.217,2980399,-9625.99,28899.14,375000.0,375000.0,302286.24,238128.12,375000.0,375000.0,,,,,
1.218,2980400,-9610.67,28897.54,375000.0,375000.0,302287.62,238129.95,375000.0,375000.0,,,,,
1.219,2980401,-9598.32,28900.39,375000.0,375000.0,302290.04,238133.87,375000.0,375000.0,,,,,
1.220,2980402,-9592.27,28904.29,375000.0,375000.0,302292.85,238138.93,375000.0,375000.0,,,,,
1.221,2980403,-9593.33,28903.72,375000.0,375000.0,302294.71,238143.46,375000.0,375000.0,,,,,
1.222,2980404,-9599.47,28894.26,375000.0,375000.0,302294.55,238145.91,375000.0,375000.0,,,,,
1.223,2980405,-9607.08,28875.21,375000.0,375000.0,302292.35,238145.49,375000.0,375000.0,,,,,
1.224,2980406,-9613.3,28850.44,375000.0,375000.0,302289.2,238142.63,375000.0,375000.0,,,,,
1.225,2980407,-9617.71,28826.86,375000.0,375000.0,302286.7,238138.71,375000.0,375000.0,,,,,
1.226,2980408,-9622.39,28811.57,375000.0,375000.0,302285.93,238135.49,375000.0,375000.0,,,,,
1.227,2980409,-9630.1,28809.1,375000.0,375000.0,302286.7,238134.18,375000.0,375000.0,,,,,
1.228,2980410,-9641.69,28820.11,375000.0,375000.0,302287.59,238134.96,375000.0,375000.0,,,,,
1.229,2980411,-9654.35,28841.77,375000.0,375000.0,302286.88,238136.88,375000.0,375000.0,,,,,
1.230,2980412,-9662.11,28869.46,375000.0,375000.0,302283.69,238138.47,375000.0,375000.0,,,,,
1.231,2980413,-9658.7,28898.41,375000.0,375000.0,302278.78,238138.61,375000.0,375000.0,,,,,
1.232,2980414,-9641.31,28924.49,375000.0,375000.0,302274.34,238137.32,375000.0,375000.0,,,,,
1.233,2980415,-9613.33,28944.11,375000.0,375000.0,302272.84,238135.84,375000.0,375000.0,,,,,
1.234,2980416,-9584.04,28953.65,375000.0,375000.0,302275.69,238136.12,375000.0,375000.0,,,,,
1.235,2980417,-9565.11,28949.61,375000.0,375000.0,302282.28,238139.66,375000.0,375000.0,,,,,
1.236,2980418,-9565.28,28929.69,375000.0,375000.0,302290.19,238146.56,375000.0,375000.0,,,,,
1.237,2980419,-9585.85,28894.76,375000.0,375000.0,302296.39,238155.08,375000.0,375000.0,,,,,
1.238,2980420,-9619.24,28850.2,375000.0,375000.0,302298.83,238162.22,375000.0,375000.0,,,,,
1.239,2980421,-9651.71,28805.75,375000.0,375000.0,302297.45,238165.11,375000.0,375000.0,,,,,
1.240,2980422,-9669.02,28773.14,375000.0,375000.0,302294.09,238162.49,375000.0,375000.0,,,,,
1.241,2980423,-9662.46,28762.13,375000.0,375000.0,302291.4,238155.64,375000.0,375000.0,,,,,
1.242,2980424,-9632.41,28776.66,375000.0,375000.0,302291.28,238147.97,375000.0,375000.0,,,,,
1.243,2980425,-9587.91,28812.85,375000.0,375000.0,302293.85,238143.62,375000.0,375000.0,,,,,
1.244,2980426,-9542.51,28860.07,375000.0,375000.0,302297.56,238145.36,375000.0,375000.0,,,,,
1.245,2980427,-9508.55,28904.8,375000.0,375000.0,302300.21,238153.13,375000.0,375000.0,,,,,
1.246,2980428,-9492.49,28935.74,375000.0,375000.0,302300.43,238163.84,375000.0,375000.0,,,,,
1.247,2980429,-9493.34,28947.95,375000.0,375000.0,302298.63,238172.8,375000.0,375000.0,,,,,
1.248,2980430,-9504.34,28944.19,375000.0,375000.0,302296.79,238176.05,375000.0,375000.0,,,,,
1.249,2980431,-9516.85,28932.99,375000.0,375000.0,302297.36,238172.52,375000.0,375000.0,,,,,
1.250,2980432,-9524.29,28924.26,375000.0,375000.0,302301.77,238164.82,375000.0,375000.0,,,,,
1.251,2980433,-9524.46,28924.72,375000.0,375000.0,302309.46,238158.14,375000.0,375000.0,,,,,
1.252,2980434,-9519.57,28934.89,375000.0,375000.0,302318.01,238157.73,375000.0,375000.0,,,,,
1.253,2980435,-9514.55,28949.23,375000.0,375000.0,302324.32,238166.05,375000.0,375000.0,,,,,
1.254,2980436,-9514.58,28958.87,375000.0,375000.0,302326.1,238181.26,375000.0,375000.0,,,,,
1.255,2980437,-9523.05,28955.85,375000.0,375000.0,302322.99,238197.71,375000.0,375000.0,,,,,
1.256,2980438,-9540.46,28936.65,375000.0,375000.0,302316.68,238208.41,375000.0,375000.0,,,,,
1.257,2980439,-9564.25,28903.64,375000.0,375000.0,302310.01,238208.33,375000.0,375000.0,,,,,
1.258,2980440,-9589.38,28863.98,375000.0,375000.0,302305.6,238196.81,375000.0,375000.0,,,,,
1.259,2980441,-9609.49,28826.63,375000.0,375000.0,302304.8,238178.05,375000.0,375000.0,,,,,
1.260,2980442,-9618.56,28799.09,375000.0,375000.0,302307.3,238159.18,375000.0,375000.0,,,,,
1.261,2980443,-9612.97,28785.17,375000.0,375000.0,302311.62,238147.08,375000.0,375000.0,,,,,
1.262,2980444,-9593.25,28784.62,375000.0,375000.0,302316.0,238145.35,375000.0,375000.0,,,,,
1.263,2980445,-9564.77,28794.45,375000.0,375000.0,302319.17,238152.92,375000.0,375000.0,,,,,
1.264,2980446,-9536.54,28810.87,375000.0,375000.0,302320.62,238165.0,375000.0,375000.0,,,,,
1.265,2980447,-9518.06,28830.84,375000.0,375000.0,302320.38,238175.51,375000.0,375000.0,,,,,
1.266,2980448,-9515.32,28852.39,375000.0,375000.0,302318.6,238180.02,375000.0,375000.0,,,,,
1.267,2980449,-9527.59,28874.09,375000.0,375000.0,302315.28,238177.51,375000.0,375000.0,,,,,
1.268,2980450,-9547.1,28894.11,375000.0,375000.0,302310.3,238170.22,375000.0,375000.0,,,,,
1.269,2980451,-9561.89,28909.85,375000.0,375000.0,302303.8,238162.04,375000.0,375000.0,,,,,
1.270,2980452,-9561.19,28918.69,375000.0,375000.0,302296.46,238156.24,375000.0,375000.0,,,,,
1.271,2980453,-9540.56,28919.28,375000.0,375000.0,302289.55,238153.99,375000.0,375000.0,,,,,
1.272,2980454,-9504.47,28912.77,375000.0,375000.0,302284.54,238154.12,375000.0,375000.0,,,,,
1.273,2980455,-9464.54,28902.95,375000.0,375000.0,302282.57,238154.35,375000.0,375000.0,,,,,
1.274,2980456,-9434.35,28894.87,375000.0,375000.0,302283.96,238152.79,375000.0,375000.0,,,,,
1.275,2980457,-9423.22,28892.65,375000.0,375000.0,302288.05,238149.09,375000.0,375000.0,,,,,
1.276,2980458,-9432.09,28897.36,375000.0,375000.0,302293.53,238144.46,375000.0,375000.0,,,,,
1.277,2980459,-9453.65,28906.44,375000.0,375000.0,302298.92,238140.81,375000.0,375000.0,,,,,
1.278,2980460,-9476.48,28914.97,375000.0,375000.0,302303.13,238139.57,375000.0,375000.0,,,,,
1.279,2980461,-9490.91,28918.36,375000.0,375000.0,302305.81,238141.05,375000.0,375000.0,,,,,
1.280,2980462,-9493.4,28914.94,375000.0,375000.0,302307.32,238144.45,375000.0,375000.0,,,,,
1.281,2980463,-9487.27,28907.02,375000.0,375000.0,302308.55,238148.69,375000.0,375000.0,,,,,
1.282,2980464,-9479.53,28899.65,375000.0,375000.0,302310.51,238153.04,375000.0,375000.0,,,,,
1.283,2980465,-9476.12,28897.58,375000.0,375000.0,302313.93,238157.44,375000.0,375000.0,,,,,
1.284,2980466,-9478.29,28902.19,375000.0,375000.0,302318.88,238162.08,375000.0,375000.0,,,,,
1.285,2980467,-9482.46,28910.14,375000.0,375000.0,302324.58,238166.81,375000.0,375000.0,,,,,
1.286,2980468,-9483.32,28914.76,375000.0,375000.0,302329.37,238170.69,375000.0,375000.0,,,,,
1.287,2980469,-9478.08,28909.71,375000.0,375000.0,302331.12,238172.29,375000.0,375000.0,,,,,
1.288,2980470,-9469.11,28892.97,375000.0,375000.0,302327.89,238170.51,375000.0,375000.0,,,,,
1.289,2980471,-9463.0,28868.78,375000.0,375000.0,302318.84,238165.41,375000.0,375000.0,,,,,
1.290,2980472,-9466.49,28846.35,375000.0,375000.0,302304.87,238158.47,375000.0,375000.0,,,,,
1.291,2980473,-9481.71,28835.52,375000.0,375000.0,302288.74,238152.1,375000.0,375000.0,,,,,
1.292,2980474,-9503.68,28841.69,375000.0,375000.0,302274.41,238148.47,375000.0,375000.0,,,,,
1.293,2980475,-9521.89,28862.54,375000.0,375000.0,302265.75,238148.45,375000.0,375000.0,,,,,
1.294,2980476,-9525.36,28888.72,375000.0,375000.0,302265.14,238151.25,375000.0,375000.0,,,,,
1.295,2980477,-9508.33,28908.24,375000.0,375000.0,302272.56,238154.99,375000.0,375000.0,,,,,
1.296,2980478,-9473.52,28912.56,375000.0,375000.0,302285.66,238157.83,375000.0,375000.0,,,,,
1.297,2980479,-9430.86,28901.22,375000.0,375000.0,302300.8,238159.0,375000.0,375000.0,,,,,
1.298,2980480,-9392.46,28882.54,375000.0,375000.0,302314.56,238159.11,375000.0,375000.0,,,,,
1.299,2980481,-9366.56,28869.93,375000.0,375000.0,302325.0,238159.57,375000.0,375000.0,,,,,
1.300,2980482,-9353.86,28875.46,375000.0,375000.0,302331.99,238161.64,375000.0,375000.0,,,,,
1.301,2980483,-9348.16,28904.07,375000.0,375000.0,302336.62,238165.67,375000.0,375000.0,,,,,
1.302,2980484,-9340.88,28951.22,375000.0,375000.0,302340.03,238171.09,375000.0,375000.0,,,,,
1.303,2980485,-9326.47,29005.02,375000.0,375000.0,302342.41,238177.03,375000.0,375000.0,,,,,
1.304,2980486,-9305.73,29051.74,375000.0,375000.0,302342.81,238183.05,375000.0,375000.0,,,,,
1.305,2980487,-9285.0,29081.82,375000.0,375000.0,302339.82,238189.32,375000.0,375000.0,,,,,
1.306,2980488,-9271.93,29093.39,375000.0,375000.0,302332.8,238196.05,375000.0,375000.0,,,,,
1.307,2980489,-9270.48,29091.85,375000.0,375000.0,302322.62,238202.56,375000.0,375000.0,,,,,
1.308,2980490,-9278.24,29086.17,375000.0,375000.0,302311.72,238206.83,375000.0,375000.0,,,,,
1.309,2980491,-9287.73,29084.02,375000.0,375000.0,302303.04,238206.09,375000.0,375000.0,,,,,
1.310,2980492,-9290.87,29088.33,375000.0,375000.0,302298.64,238198.53,375000.0,375000.0,,,,,
1.311,2980493,-9283.82,29096.91,375000.0,375000.0,302298.71,238185.06,375000.0,375000.0,,,,,
1.312,2980494,-9269.32,29104.72,375000.0,375000.0,302301.65,238169.91,375000.0,375000.0,,,,,
1.313,2980495,-9254.9,29107.44,375000.0,375000.0,302305.1,238159.3,375000.0,375000.0,,,,,
1.314,2980496,-9248.04,29104.14,375000.0,375000.0,302307.46,238158.41,375000.0,375000.0,,,,,
1.315,2980497,-9251.1,29097.86,375000.0,375000.0,302308.81,238168.24,375000.0,375000.0,,,,,
1.316,2980498,-9259.19,29094.07,375000.0,375000.0,302310.71,238184.14,375000.0,375000.0,,,,,
1.317,2980499,-9262.22,29098.01,375000.0,375000.0,302314.98,238197.47,375000.0,375000.0,,,,,
1.318,2980500,-9250.4,29112.31,375000.0,375000.0,302322.02,238199.85,375000.0,375000.0,,,,,
1.319,2980501,-9220.02,29136.01,375000.0,375000.0,302329.93,238188.04,375000.0,375000.0,,,,,
1.320,2980502,-9176.42,29164.87,375000.0,375000.0,302334.99,238166.76,375000.0,375000.0,,,,,
1.321,2980503,-9132.36,29192.86,375000.0,375000.0,302333.42,238147.41,375000.0,375000.0,,,,,
1.322,2980504,-9102.49,29214.01,375000.0,375000.0,302323.54,238142.86,375000.0,375000.0,,,,,
1.323,2980505,-9096.61,29224.19,375000.0,375000.0,302307.22,238160.63,375000.0,375000.0,,,,,
1.324,2980506,-9115.01,29222.51,375000.0,375000.0,302289.55,238197.98,375000.0,375000.0,,,,,
1.325,2980507,-9147.94,29212.08,375000.0,375000.0,302276.89,238241.89,375000.0,375000.0,,,,,
1.326,2980508,-9179.49,29199.75,375000.0,375000.0,302274.05,238274.2,375000.0,375000.0,,,,,
1.327,2980509,-9193.82,29194.36,375000.0,375000.0,302282.16,238280.02,375000.0,375000.0,,,,,
1.328,2980510,-9181.17,29203.78,375000.0,375000.0,302298.05,238255.02,375000.0,375000.0,,,,,
1.329,2980511,-9141.22,29231.31,375000.0,375000.0,302315.81,238208.04,375000.0,375000.0,,,,,
1.330,2980512,-9082.83,29273.33,375000.0,375000.0,302329.35,238157.36,375000.0,375000.0,,,,,
1.331,2980513,-9020.59,29319.49,375000.0,375000.0,302335.06,238122.4,375000.0,375000.0,,,,,
1.332,2980514,-8969.74,29356.17,375000.0,375000.0,302333.08,238114.91,375000.0,375000.0,,,,,
1.333,2980515,-8941.12,29372.24,375000.0,375000.0,302326.65,238133.86,375000.0,375000.0,,,,,
1.334,2980516,-8937.89,29364.47,375000.0,375000.0,302320.2,238166.65,375000.0,375000.0,,,,,
1.335,2980517,-8954.75,29339.83,375000.0,375000.0,302316.99,238195.74,375000.0,375000.0,,,,,
1.336,2980518,-8980.05,29313.1,375000.0,375000.0,302317.65,238207.23,375000.0,375000.0,,,,,
1.337,2980519,-9000.15,29300.26,375000.0,375000.0,302320.3,238197.15,375000.0,375000.0,,,,,
1.338,2980520,-9004.66,29310.99,375000.0,375000.0,302321.91,238172.33,375000.0,375000.0,,,,,
1.339,2980521,-8990.77,29343.77,375000.0,375000.0,302320.22,238146.02,375000.0,375000.0,,,,,
1.340,2980522,-8964.56,29386.58,375000.0,375000.0,302315.12,238130.66,375000.0,375000.0,,,,,
1.341,2980523,-8938.52,29422.93,375000.0,375000.0,302308.7,238131.96,375000.0,375000.0,,,,,
1.342,2980524,-8925.73,29440.28,375000.0,375000.0,302304.2,238146.82,375000.0,375000.0,,,,,
1.343,2980525,-8933.22,29436.45,375000.0,375000.0,302304.24,238166.12,375000.0,375000.0,,,,,
1.344,2980526,-8957.6,29420.44,375000.0,375000.0,302309.39,238179.97,375000.0,375000.0,,,,,
1.345,2980527,-8985.68,29407.33,375000.0,375000.0,302317.75,238182.77,375000.0,375000.0,,,,,
1.346,2980528,-9000.23,29409.77,375000.0,375000.0,302325.7,238175.16,375000.0,375000.0,,,,,
1.347,2980529,-8988.67,29431.01,375000.0,375000.0,302329.49,238162.48,375000.0,375000.0,,,,,
1.348,2980530,-8950.2,29463.09,375000.0,375000.0,302326.93,238151.07,375000.0,375000.0,,,,,
1.349,2980531,-8897.55,29491.33,375000.0,375000.0,302318.37,238144.7,375000.0,375000.0,,,,,
1.350,2980532,-8851.63,29502.5,375000.0,375000.0,302306.69,238143.29,375000.0,375000.0,,,,,
1.351,2980533,-8831.52,29492.17,375000.0,375000.0,302296.15,238144.16,375000.0,375000.0,,,,,
1.352,2980534,-8844.43,29467.06,375000.0,375000.0,302290.71,238144.58,375000.0,375000.0,,,,,
1.353,2980535,-8881.26,29441.23,375000.0,375000.0,302292.51,238143.91,375000.0,375000.0,,,,,
1.354,2980536,-8920.37,29428.33,375000.0,375000.0,302300.97,238143.82,375000.0,375000.0,,,,,
1.355,2980537,-8938.18,29434.32,375000.0,375000.0,302313.1,238146.69,375000.0,375000.0,,,,,
1.356,2980538,-8921.39,29454.62,375000.0,375000.0,302324.69,238153.43,375000.0,375000.0,,,,,
1.357,2980539,-8874.42,29477.09,375000.0,375000.0,302331.99,238162.35,375000.0,375000.0,,,,,
1.358,2980540,-8818.08,29488.85,375000.0,375000.0,302333.24,238169.85,375000.0,375000.0,,,,,
1.359,2980541,-8779.73,29483.03,375000.0,375000.0,302329.3,238172.59,375000.0,375000.0,,,,,
1.360,2980542,-8779.88,29461.83,375000.0,375000.0,302323.19,238169.68,375000.0,375000.0,,,,,
1.361,2980543,-8821.81,29434.66,375000.0,375000.0,302318.67,238163.47,375000.0,375000.0,,,,,
1.362,2980544,-8889.59,29413.08,375000.0,375000.0,302318.52,238158.28,375000.0,375000.0,,,,,
1.363,2980545,-8955.11,29405.62,375000.0,375000.0,302323.22,238157.83,375000.0,375000.0,,,,,
1.364,2980546,-8990.72,29415.36,375000.0,375000.0,302330.81,238162.96,375000.0,375000.0,,,,,
1.365,2980547,-8980.98,29440.75,375000.0,375000.0,302337.85,238171.06,375000.0,375000.0,,,,,
1.366,2980548,-8928.26,29478.07,375000.0,375000.0,302341.2,238177.58,375000.0,375000.0,,,,,
1.367,2980549,-8850.14,29523.1,375000.0,375000.0,302339.59,238178.79,375000.0,375000.0,,,,,
1.368,2980550,-8770.89,29570.64,375000.0,375000.0,302334.35,238174.14,375000.0,375000.0,,,,,
1.369,2980551,-8711.8,29612.73,375000.0,375000.0,302328.74,238166.73,375000.0,375000.0,,,,,
1.370,2980552,-8684.76,29638.06,375000.0,375000.0,302326.35,238161.6,375000.0,375000.0,,,,,
1.371,2980553,-8691.18,29634.51,375000.0,375000.0,302329.21,238162.93,375000.0,375000.0,,,,,
1.372,2980554,-8724.87,29594.99,375000.0,375000.0,302336.75,238171.61,375000.0,375000.0,,,,,
1.373,2980555,-8776.11,29523.52,375000.0,375000.0,302346.01,238184.8,375000.0,375000.0,,,,,
1.374,2980556,-8834.31,29437.44,375000.0,375000.0,302353.15,238197.48,375000.0,375000.0,,,,,
1.375,2980557,-8888.65,29362.96,375000.0,375000.0,302355.39,238205.2,375000.0,375000.0,,,,,
1.376,2980558,-8928.31,29324.63,375000.0,375000.0,302352.46,238206.35,375000.0,375000.0,,,,,
1.377,2980559,-8943.97,29333.36,375000.0,375000.0,302346.7,238202.66,375000.0,375000.0,,,,,
1.378,2980560,-8931.32,29379.61,375000.0,375000.0,302341.85,238197.84,375000.0,375000.0,,,,,
1.379,2980561,-8894.83,29436.03,375000.0,375000.0,302341.07,238195.2,375000.0,375000.0,,,,,
1.380,2980562,-8848.86,29469.82,375000.0,375000.0,302345.28,238195.76,375000.0,375000.0,,,,,
1.381,2980563,-8813.98,29459.03,375000.0,375000.0,302352.6,238197.9,375000.0,375000.0,,,,,
1.382,2980564,-8808.71,29404.77,375000.0,375000.0,302359.2,238198.78,375000.0,375000.0,,,,,
1.383,2980565,-8840.33,29332.48,375000.0,375000.0,302361.16,238196.29,375000.0,375000.0,,,,,
1.384,2980566,-8899.49,29280.86,375000.0,375000.0,302356.37,238190.61,375000.0,375000.0,,,,,
1.385,2980567,-8962.27,29283.42,375000.0,375000.0,302345.48,238184.15,375000.0,375000.0,,,,,
1.386,2980568,-8999.67,29351.82,375000.0,375000.0,302331.68,238180.17,375000.0,375000.0,,,,,
1.387,2980569,-8990.43,29469.24,375000.0,375000.0,302319.26,238180.76,375000.0,375000.0,,,,,
1.388,2980570,-8931.11,29597.45,375000.0,375000.0,302311.79,238185.61,375000.0,375000.0,,,,,
1.389,2980571,-8838.23,29693.8,375000.0,375000.0,302310.73,238192.07,375000.0,375000.0,,,,,
1.390,2980572,-8741.4,29729.92,375000.0,375000.0,302315.05,238196.61,375000.0,375000.0,,,,,
1.391,2980573,-8670.59,29702.82,375000.0,375000.0,302321.84,238196.58,375000.0,375000.0,,,,,
1.392,2980574,-8643.92,29633.73,375000.0,375000.0,302327.7,238191.49,375000.0,375000.0,,,,,
1.393,2980575,-8661.41,29556.05,375000.0,375000.0,302330.0,238182.97,375000.0,375000.0,,,,,
1.394,2980576,-8707.19,29499.3,375000.0,375000.0,302327.83,238173.74,375000.0,375000.0,,,,,
1.395,2980577,-8758.06,29477.2,375000.0,375000.0,302322.11,238166.26,375000.0,375000.0,,,,,
1.396,2980578,-8793.69,29485.13,375000.0,375000.0,302315.11,238161.77,375000.0,375000.0,,,,,
1.397,2980579,-8803.55,29506.59,375000.0,375000.0,302309.57,238160.34,375000.0,375000.0,,,,,
1.398,2980580,-8788.35,29524.12,375000.0,375000.0,302307.84,238161.44,375000.0,375000.0,,,,,
1.399,2980581,-8756.76,29528.01,375000.0,375000.0,302311.14,238164.67,375000.0,375000.0,,,,,
1.400,2980582,-8720.61,29518.92,375000.0,375000.0,302319.26,238169.94,375000.0,375000.0,,,,,
1.401,2980583,-8691.32,29504.17,375000.0,375000.0,302330.58,238177.16,375000.0,375000.0,,,,,
1.402,2980584,-8678.48,29491.38,375000.0,375000.0,302342.51,238185.63,375000.0,375000.0,,,,,
1.403,2980585,-8689.48,29483.81,375000.0,375000.0,302352.17,238193.76,375000.0,375000.0,,,,,
1.404,2980586,-8728.36,29479.89,375000.0,375000.0,302357.16,238199.38,375000.0,375000.0,,,,,
1.405,2980587,-8793.3,29476.27,375000.0,375000.0,302356.17,238200.58,375000.0,375000.0,,,,,
1.406,2980588,-8874.12,29471.3,375000.0,375000.0,302349.36,238196.57,375000.0,375000.0,,,,,
1.407,2980589,-8952.45,29465.96,375000.0,375000.0,302338.22,238188.0,375000.0,375000.0,,,,,
1.408,2980590,-9006.53,29461.63,375000.0,375000.0,302325.13,238176.69,375000.0,375000.0,,,,,
1.409,2980591,-9019.61,29456.51,375000.0,375000.0,302312.68,238164.81,375000.0,375000.0,,,,,
1.410,2980592,-8988.4,29444.25,375000.0,375000.0,302303.16,238154.2,375000.0,375000.0,,,,,
1.411,2980593,-8926.54,29416.69,375000.0,375000.0,302298.11,238146.07,375000.0,375000.0,,,,,
1.412,2980594,-8860.24,29370.01,375000.0,375000.0,302298.18,238141.15,375000.0,375000.0,,,,,
1.413,2980595,-8816.92,29310.56,375000.0,375000.0,302303.12,238140.05,375000.0,375000.0,,,,,
1.414,2980596,-8812.16,29256.11,375000.0,375000.0,302311.84,238143.25,375000.0,375000.0,,,,,
1.415,2980597,-8841.67,29230.35,375000.0,375000.0,302322.51,238150.72,375000.0,375000.0,,,,,
1.416,2980598,-8882.98,29252.41,375000.0,375000.0,302332.8,238161.35,375000.0,375000.0,,,,,
1.417,2980599,-8906.51,29326.53,375000.0,375000.0,302340.44,238172.72,375000.0,375000.0,,,,,
1.418,2980600,-8890.53,29437.52,375000.0,375000.0,302343.86,238181.73,375000.0,375000.0,,,,,
1.419,2980601,-8832.26,29555.23,375000.0,375000.0,302342.8,238185.76,375000.0,375000.0,,,,,
1.420,2980602,-8749.24,29646.49,375000.0,375000.0,302338.54,238184.04,375000.0,375000.0,,,,,
1.421,2980603,-8670.23,29688.87,375000.0,375000.0,302333.44,238178.13,375000.0,375000.0,,,,,
1.422,2980604,-8620.7,29679.68,375000.0,375000.0,302329.97,238171.33,375000.0,375000.0,,,,,
1.423,2980605,-8610.77,29635.54,375000.0,375000.0,302329.47,238166.97,375000.0,375000.0,,,,,
1.424,2980606,-8631.84,29583.3,375000.0,375000.0,302331.45,238166.66,375000.0,375000.0,,,,,
1.425,2980607,-8663.3,29546.77,375000.0,375000.0,302333.79,238169.39,375000.0,375000.0,,,,,
1.426,2980608,-8684.83,29536.35,375000.0,375000.0,302333.91,238172.21,375000.0,375000.0,,,,,
1.427,2980609,-8687.1,29546.32,375000.0,375000.0,302330.32,238172.14,375000.0,375000.0,,,,,
1.428,2980610,-8674.93,29560.51,375000.0,375000.0,302323.86,238168.14,375000.0,375000.0,,,,,
1.429,2980611,-8661.93,29562.72,375000.0,375000.0,302317.64,238162.05,375000.0,375000.0,,,,,
1.430,2980612,-8660.43,29545.89,375000.0,375000.0,302315.79,238157.76,375000.0,375000.0,,,,,
1.431,2980613,-8673.53,29515.33,375000.0,375000.0,302321.37,238158.98,375000.0,375000.0,,,,,
1.432,2980614,-8693.93,29484.67,375000.0,375000.0,302334.63,238166.96,375000.0,375000.0,,,,,
1.433,2980615,-8709.97,29467.49,375000.0,375000.0,302352.49,238179.37,375000.0,375000.0,,,,,
1.434,2980616,-8714.42,29469.32,375000.0,375000.0,302369.76,238191.32,375000.0,375000.0,,,,,
1.435,2980617,-8709.87,29484.49,375000.0,375000.0,302381.37,238197.8,375000.0,375000.0,,,,,
1.436,2980618,-8706.81,29499.16,375000.0,375000.0,302384.72,238196.36,375000.0,375000.0,,,,,
1.437,2980619,-8715.61,29498.71,375000.0,375000.0,302380.66,238188.44,375000.0,375000.0,,,,,
