Cygnus version: 0.27.0
Operative system: Windows
Record datetime: 2023-05-26 13:04:02.615747
Device ID: STEEG_DG081015
Device verison: 
Device bandwidth: DC to 131 Hz
Device sampling rate: 1000 samples/second
Data type / unit: EEG / micro-volt (uV)
Bandpass filter: None
Notch filter: None
Timestamp,Serial Number,Fp1,Fp2,T7,T8,O1,O2,Fz,Pz,Event Id,Event Date,Event Duration,Software Marker,Software Marker Name
0.000,3055736,-9691.81,29720.4,375000.0,375000.0,302815.35,238552.97,375000.0,375000.0,,,,,
0.001,3055737,-9707.7,29703.67,375000.0,375000.0,302801.28,238546.41,375000.0,375000.0,,,,,
0.002,3055738,-9719.3,29691.83,375000.0,375000.0,302789.29,238540.35,375000.0,375000.0,,,,,
0.003,3055739,-9723.56,29688.19,375000.0,375000.0,302781.4,238536.06,375000.0,375000.0,,,,,
0.004,3055740,-9719.37,29693.64,375000.0,375000.0,302779.4,238535.68,375000.0,375000.0,,,,,
0.005,3055741,-9707.42,29706.91,375000.0,375000.0,302784.66,238541.7,375000.0,375000.0,,,,,
0.006,3055742,-9689.61,29725.54,375000.0,375000.0,302797.76,238555.7,375000.0,375000.0,,,,,
0.007,3055743,-9668.25,29746.94,375000.0,375000.0,302817.98,238577.21,375000.0,375000.0,,,,,
0.008,3055744,-9645.76,29768.9,375000.0,375000.0,302842.96,238603.21,375000.0,375000.0,,,,,
0.009,3055745,-9624.75,29789.36,375000.0,375000.0,302868.69,238628.68,375000.0,375000.0,,,,,
0.010,3055746,-9608.16,29805.92,375000.0,375000.0,302890.08,238647.95,375000.0,375000.0,,,,,
0.011,3055747,-9599.09,29815.67,375000.0,375000.0,302902.2,238656.53,375000.0,375000.0,,,,,
0.012,3055748,-9600.09,29815.8,375000.0,375000.0,302901.78,238652.43,375000.0,375000.0,,,,,
0.013,3055749,-9612.0,29804.81,375000.0,375000.0,302888.46,238636.68,375000.0,375000.0,,,,,
0.014,3055750,-9633.17,29783.7,375000.0,375000.0,302865.07,238612.77,375000.0,375000.0,,,,,
0.015,3055751,-9659.53,29756.29,375000.0,375000.0,302836.83,238585.45,375000.0,375000.0,,,,,
0.016,3055752,-9685.67,29728.21,375000.0,375000.0,302809.58,238559.31,375000.0,375000.0,,,,,
0.017,3055753,-9706.69,29705.11,375000.0,375000.0,302787.87,238537.83,375000.0,375000.0,,,,,
0.018,3055754,-9719.72,29690.72,375000.0,375000.0,302773.78,238523.07,375000.0,375000.0,,,,,
0.019,3055755,-9724.5,29685.93,375000.0,375000.0,302766.99,238515.9,375000.0,375000.0,,,,,
0.020,3055756,-9722.53,29689.33,375000.0,375000.0,302765.96,238516.55,375000.0,375000.0,,,,,
0.021,3055757,-9715.64,29698.72,375000.0,375000.0,302769.58,238525.02,375000.0,375000.0,,,,,
0.022,3055758,-9704.61,29712.69,375000.0,375000.0,302778.11,238541.08,375000.0,375000.0,,,,,
0.023,3055759,-9688.9,29731.13,375000.0,375000.0,302792.95,238563.94,375000.0,375000.0,,,,,
0.024,3055760,-9667.8,29754.38,375000.0,375000.0,302815.17,238591.78,375000.0,375000.0,,,,,
0.025,3055761,-9642.11,29781.51,375000.0,375000.0,302843.63,238621.5,375000.0,375000.0,,,,,
0.026,3055762,-9615.39,29808.91,375000.0,375000.0,302873.99,238648.91,375000.0,375000.0,,,,,
0.027,3055763,-9593.69,29830.44,375000.0,375000.0,302899.35,238669.44,375000.0,375000.0,,,,,
0.028,3055764,-9583.52,29839.35,375000.0,375000.0,302912.51,238679.26,375000.0,375000.0,,,,,
0.029,3055765,-9589.04,29831.27,375000.0,375000.0,302908.94,238676.33,375000.0,375000.0,,,,,
0.030,3055766,-9609.78,29806.69,375000.0,375000.0,302889.0,238661.11,375000.0,375000.0,,,,,
0.031,3055767,-9640.41,29771.5,375000.0,375000.0,302858.11,238636.41,375000.0,375000.0,,,,,
0.032,3055768,-9672.64,29735.01,375000.0,375000.0,302824.78,238606.67,375000.0,375000.0,,,,,
0.033,3055769,-9698.64,29706.35,375000.0,375000.0,302797.24,238576.65,375000.0,375000.0,,,,,
0.034,3055770,-9714.11,29690.83,375000.0,375000.0,302780.4,238550.25,375000.0,375000.0,,,,,
0.035,3055771,-9719.51,29688.31,375000.0,375000.0,302774.57,238529.74,375000.0,375000.0,,,,,
0.036,3055772,-9718.85,29694.09,375000.0,375000.0,302776.41,238515.92,375000.0,375000.0,,,,,
0.037,3055773,-9716.73,29702.07,375000.0,375000.0,302781.68,238508.83,375000.0,375000.0,,,,,
0.038,3055774,-9715.33,29708.2,375000.0,375000.0,302787.91,238508.62,375000.0,375000.0,,,,,
0.039,3055775,-9713.11,29712.47,375000.0,375000.0,302795.75,238516.04,375000.0,375000.0,,,,,
0.040,3055776,-9705.9,29718.36,375000.0,375000.0,302808.01,238531.96,375000.0,375000.0,,,,,
0.041,3055777,-9689.85,29730.15,375000.0,375000.0,302827.12,238556.23,375000.0,375000.0,,,,,
0.042,3055778,-9664.44,29749.63,375000.0,375000.0,302852.39,238586.35,375000.0,375000.0,,,,,
0.043,3055779,-9633.94,29774.18,375000.0,375000.0,302878.87,238616.89,375000.0,375000.0,,,,,
0.044,3055780,-9606.2,29797.28,375000.0,375000.0,302898.59,238640.4,375000.0,375000.0,,,,,
0.045,3055781,-9589.48,29811.33,375000.0,375000.0,302903.83,238649.63,375000.0,375000.0,,,,,
0.046,3055782,-9588.75,29811.17,375000.0,375000.0,302890.75,238640.48,375000.0,375000.0,,,,,
0.047,3055783,-9603.55,29796.48,375000.0,375000.0,302861.57,238614.11,375000.0,375000.0,,,,,
0.048,3055784,-9628.34,29771.91,375000.0,375000.0,302824.01,238577.32,375000.0,375000.0,,,,,
0.049,3055785,-9655.22,29744.82,375000.0,375000.0,302788.29,238540.45,375000.0,375000.0,,,,,
0.050,3055786,-9677.34,29722.04,375000.0,375000.0,302763.03,238513.65,375000.0,375000.0,,,,,
0.051,3055787,-9691.35,29707.39,375000.0,375000.0,302752.12,238503.11,375000.0,375000.0,,,,,
0.052,3055788,-9697.69,29701.03,375000.0,375000.0,302753.95,238508.77,375000.0,375000.0,,,,,
0.053,3055789,-9698.8,29700.93,375000.0,375000.0,302763.38,238524.93,375000.0,375000.0,,,,,
0.054,3055790,-9696.56,29705.12,375000.0,375000.0,302774.99,238543.14,375000.0,375000.0,,,,,
0.055,3055791,-9690.59,29713.41,375000.0,375000.0,302786.02,238556.27,375000.0,375000.0,,,,,
0.056,3055792,-9678.54,29727.36,375000.0,375000.0,302797.28,238561.64,375000.0,375000.0,,,,,
0.057,3055793,-9658.08,29748.61,375000.0,375000.0,302811.68,238561.7,375000.0,375000.0,,,,,
0.058,3055794,-9629.5,29776.67,375000.0,375000.0,302831.33,238562.04,375000.0,375000.0,,,,,
0.059,3055795,-9597.09,29807.57,375000.0,375000.0,302854.98,238567.77,375000.0,375000.0,,,,,
0.060,3055796,-9568.41,29834.47,375000.0,375000.0,302877.35,238580.28,375000.0,375000.0,,,,,
0.061,3055797,-9551.54,29850.03,375000.0,375000.0,302890.91,238596.08,375000.0,375000.0,,,,,
0.062,3055798,-9551.66,29849.54,375000.0,375000.0,302889.35,238608.34,375000.0,375000.0,,,,,
0.063,3055799,-9568.64,29833.02,375000.0,375000.0,302870.81,238610.3,375000.0,375000.0,,,,,
0.064,3055800,-9597.01,29805.32,375000.0,375000.0,302839.23,238598.71,375000.0,375000.0,,,,,
0.065,3055801,-9628.28,29774.16,375000.0,375000.0,302803.03,238575.58,375000.0,375000.0,,,,,
0.066,3055802,-9654.4,29746.98,375000.0,375000.0,302771.67,238547.28,375000.0,375000.0,,,,,
0.067,3055803,-9670.71,29728.35,375000.0,375000.0,302751.85,238521.69,375000.0,375000.0,,,,,
0.068,3055804,-9676.99,29719.07,375000.0,375000.0,302745.12,238504.73,375000.0,375000.0,,,,,
0.069,3055805,-9676.15,29717.19,375000.0,375000.0,302748.17,238498.4,375000.0,375000.0,,,,,
0.070,3055806,-9671.77,29720.19,375000.0,375000.0,302755.3,238500.94,375000.0,375000.0,,,,,
0.071,3055807,-9665.63,29726.9,375000.0,375000.0,302761.9,238508.86,375000.0,375000.0,,,,,
0.072,3055808,-9656.95,29738.1,375000.0,375000.0,302766.84,238519.52,375000.0,375000.0,,,,,
0.073,3055809,-9643.44,29755.33,375000.0,375000.0,302772.65,238532.54,375000.0,375000.0,,,,,
0.074,3055810,-9623.55,29778.96,375000.0,375000.0,302783.47,238549.29,375000.0,375000.0,,,,,
0.075,3055811,-9598.63,29806.47,375000.0,375000.0,302801.88,238570.86,375000.0,375000.0,,,,,
0.076,3055812,-9573.43,29832.39,375000.0,375000.0,302826.54,238595.85,375000.0,375000.0,,,,,
0.077,3055813,-9554.75,29849.88,375000.0,375000.0,302851.88,238619.54,375000.0,375000.0,,,,,
0.078,3055814,-9548.72,29853.46,375000.0,375000.0,302870.16,238635.16,375000.0,375000.0,,,,,
0.079,3055815,-9558.07,29841.48,375000.0,375000.0,302874.9,238636.8,375000.0,375000.0,,,,,
0.080,3055816,-9580.81,29816.95,375000.0,375000.0,302863.87,238622.46,375000.0,375000.0,,,,,
0.081,3055817,-9610.97,29786.46,375000.0,375000.0,302840.22,238595.45,375000.0,375000.0,,,,,
0.082,3055818,-9640.97,29757.53,375000.0,375000.0,302811.13,238563.44,375000.0,375000.0,,,,,
0.083,3055819,-9664.53,29735.79,375000.0,375000.0,302784.79,238535.44,375000.0,375000.0,,,,,
0.084,3055820,-9678.64,29723.26,375000.0,375000.0,302767.2,238518.24,375000.0,375000.0,,,,,
0.085,3055821,-9683.87,29718.55,375000.0,375000.0,302760.4,238514.06,375000.0,375000.0,,,,,
0.086,3055822,-9682.92,29718.6,375000.0,375000.0,302762.8,238520.57,375000.0,375000.0,,,,,
0.087,3055823,-9678.54,29720.99,375000.0,375000.0,302771.08,238532.92,375000.0,375000.0,,,,,
0.088,3055824,-9671.8,29725.5,375000.0,375000.0,302782.61,238546.66,375000.0,375000.0,,,,,
0.089,3055825,-9661.88,29733.98,375000.0,375000.0,302796.66,238559.84,375000.0,375000.0,,,,,
0.090,3055826,-9647.11,29748.83,375000.0,375000.0,302814.04,238573.12,375000.0,375000.0,,,,,
0.091,3055827,-9626.92,29770.68,375000.0,375000.0,302835.21,238588.15,375000.0,375000.0,,,,,
0.092,3055828,-9603.27,29796.93,375000.0,375000.0,302858.45,238605.27,375000.0,375000.0,,,,,
0.093,3055829,-9580.8,29821.81,375000.0,375000.0,302879.11,238622.02,375000.0,375000.0,,,,,
0.094,3055830,-9565.48,29838.28,375000.0,375000.0,302890.85,238633.58,375000.0,375000.0,,,,,
0.095,3055831,-9562.29,29840.76,375000.0,375000.0,302888.29,238634.79,375000.0,375000.0,,,,,
0.096,3055832,-9573.03,29827.62,375000.0,375000.0,302869.79,238622.92,375000.0,375000.0,,,,,
0.097,3055833,-9595.45,29801.97,375000.0,375000.0,302838.86,238599.34,375000.0,375000.0,,,,,
0.098,3055834,-9624.0,29770.52,375000.0,375000.0,302803.2,238569.43,375000.0,375000.0,,,,,
0.099,3055835,-9651.85,29740.97,375000.0,375000.0,302771.89,238540.54,375000.0,375000.0,,,,,
0.100,3055836,-9673.39,29719.23,375000.0,375000.0,302751.88,238519.07,375000.0,375000.0,,,,,
0.101,3055837,-9685.87,29707.71,375000.0,375000.0,302745.54,238508.33,375000.0,375000.0,,,,,
0.102,3055838,-9689.63,29705.3,375000.0,375000.0,302750.52,238507.96,375000.0,375000.0,,,,,
0.103,3055839,-9686.95,29709.11,375000.0,375000.0,302761.71,238515.19,375000.0,375000.0,,,,,
0.104,3055840,-9680.3,29716.54,375000.0,375000.0,302774.29,238526.9,375000.0,375000.0,,,,,
0.105,3055841,-9670.85,29726.81,375000.0,375000.0,302786.18,238541.35,375000.0,375000.0,,,,,
0.106,3055842,-9658.27,29740.9,375000.0,375000.0,302798.47,238558.5,375000.0,375000.0,,,,,
0.107,3055843,-9641.64,29760.13,375000.0,375000.0,302813.88,238578.85,375000.0,375000.0,,,,,
0.108,3055844,-9621.0,29784.16,375000.0,375000.0,302834.03,238601.76,375000.0,375000.0,,,,,
0.109,3055845,-9598.55,29809.79,375000.0,375000.0,302857.26,238624.28,375000.0,375000.0,,,,,
0.110,3055846,-9578.7,29831.25,375000.0,375000.0,302878.4,238641.52,375000.0,375000.0,,,,,
0.111,3055847,-9566.7,29842.23,375000.0,375000.0,302890.64,238648.42,375000.0,375000.0,,,,,
0.112,3055848,-9566.63,29838.57,375000.0,375000.0,302888.69,238642.09,375000.0,375000.0,,,,,
0.113,3055849,-9579.47,29820.29,375000.0,375000.0,302871.6,238623.44,375000.0,375000.0,,,,,
0.114,3055850,-9602.51,29791.89,375000.0,375000.0,302843.55,238597.16,375000.0,375000.0,,,,,
0.115,3055851,-9630.26,29760.68,375000.0,375000.0,302812.32,238569.93,375000.0,375000.0,,,,,
0.116,3055852,-9656.51,29733.91,375000.0,375000.0,302786.01,238547.69,375000.0,375000.0,,,,,
0.117,3055853,-9676.5,29716.05,375000.0,375000.0,302769.76,238533.44,375000.0,375000.0,,,,,
0.118,3055854,-9688.28,29707.68,375000.0,375000.0,302764.11,238526.57,375000.0,375000.0,,,,,
0.119,3055855,-9692.51,29706.26,375000.0,375000.0,302765.66,238524.01,375000.0,375000.0,,,,,
0.120,3055856,-9691.1,29708.42,375000.0,375000.0,302769.68,238522.63,375000.0,375000.0,,,,,
0.121,3055857,-9685.57,29712.34,375000.0,375000.0,302773.09,238521.38,375000.0,375000.0,,,,,
0.122,3055858,-9675.98,29718.76,375000.0,375000.0,302776.14,238522.12,375000.0,375000.0,,,,,
0.123,3055859,-9661.35,29730.26,375000.0,375000.0,302781.95,238528.54,375000.0,375000.0,,,,,
0.124,3055860,-9641.01,29748.94,375000.0,375000.0,302794.11,238543.74,375000.0,375000.0,,,,,
0.125,3055861,-9616.22,29774.13,375000.0,375000.0,302813.86,238567.71,375000.0,375000.0,,,,,
0.126,3055862,-9591.01,29801.3,375000.0,375000.0,302838.33,238596.18,375000.0,375000.0,,,,,
0.127,3055863,-9571.31,29823.16,375000.0,375000.0,302861.02,238621.49,375000.0,375000.0,,,,,
0.128,3055864,-9562.93,29832.46,375000.0,375000.0,302874.4,238635.36,375000.0,375000.0,,,,,
0.129,3055865,-9569.05,29825.2,375000.0,375000.0,302873.2,238632.26,375000.0,375000.0,,,,,
0.130,3055866,-9588.66,29802.56,375000.0,375000.0,302856.93,238611.89,375000.0,375000.0,,,,,
0.131,3055867,-9616.73,29770.64,375000.0,375000.0,302830.17,238579.53,375000.0,375000.0,,,,,
0.132,3055868,-9646.1,29737.97,375000.0,375000.0,302800.57,238544.14,375000.0,375000.0,,,,,
0.133,3055869,-9670.26,29712.1,375000.0,375000.0,302775.69,238514.92,375000.0,375000.0,,,,,
0.134,3055870,-9685.59,29696.97,375000.0,375000.0,302760.1,238498.01,375000.0,375000.0,,,,,
0.135,3055871,-9692.01,29692.17,375000.0,375000.0,302754.24,238494.6,375000.0,375000.0,,,,,
0.136,3055872,-9691.92,29694.43,375000.0,375000.0,302755.41,238501.43,375000.0,375000.0,,,,,
0.137,3055873,-9688.08,29700.25,375000.0,375000.0,302760.14,238513.09,375000.0,375000.0,,,,,
0.138,3055874,-9681.71,29708.09,375000.0,375000.0,302766.48,238524.99,375000.0,375000.0,,,,,
0.139,3055875,-9671.99,29719.02,375000.0,375000.0,302774.99,238535.51,375000.0,375000.0,,,,,
0.140,3055876,-9657.09,29735.31,375000.0,375000.0,302787.86,238546.32,375000.0,375000.0,,,,,
0.141,3055877,-9636.22,29758.03,375000.0,375000.0,302806.84,238560.75,375000.0,375000.0,,,,,
0.142,3055878,-9611.35,29785.05,375000.0,375000.0,302831.12,238581.2,375000.0,375000.0,,,,,
0.143,3055879,-9587.47,29810.75,375000.0,375000.0,302856.58,238606.96,375000.0,375000.0,,,,,
0.144,3055880,-9571.12,29827.81,375000.0,375000.0,302876.85,238633.67,375000.0,375000.0,,,,,
0.145,3055881,-9567.68,29830.22,375000.0,375000.0,302885.83,238654.64,375000.0,375000.0,,,,,
0.146,3055882,-9578.98,29816.1,375000.0,375000.0,302880.3,238663.48,375000.0,375000.0,,,,,
0.147,3055883,-9602.29,29788.75,375000.0,375000.0,302861.37,238656.77,375000.0,375000.0,,,,,
0.148,3055884,-9631.39,29755.41,375000.0,375000.0,302834.06,238635.38,375000.0,375000.0,,,,,
0.149,3055885,-9659.07,29724.32,375000.0,375000.0,302805.22,238603.98,375000.0,375000.0,,,,,
0.150,3055886,-9679.95,29701.66,375000.0,375000.0,302780.95,238569.11,375000.0,375000.0,,,,,
0.151,3055887,-9692.09,29689.63,375000.0,375000.0,302764.64,238536.87,375000.0,375000.0,,,,,
0.152,3055888,-9696.71,29686.73,375000.0,375000.0,302756.69,238511.38,375000.0,375000.0,,,,,
0.153,3055889,-9696.46,29689.71,375000.0,375000.0,302755.62,238494.59,375000.0,375000.0,,,,,
0.154,3055890,-9693.14,29696.05,375000.0,375000.0,302759.84,238487.25,375000.0,375000.0,,,,,
0.155,3055891,-9686.43,29705.43,375000.0,375000.0,302768.85,238490.0,375000.0,375000.0,,,,,
0.156,3055892,-9674.32,29719.44,375000.0,375000.0,302783.28,238503.64,375000.0,375000.0,,,,,
0.157,3055893,-9654.96,29739.75,375000.0,375000.0,302803.64,238528.25,375000.0,375000.0,,,,,
0.158,3055894,-9628.87,29765.84,375000.0,375000.0,302828.71,238561.68,375000.0,375000.0,,,,,
0.159,3055895,-9600.1,29793.72,375000.0,375000.0,302854.71,238598.46,375000.0,375000.0,,,,,
0.160,3055896,-9575.55,29816.58,375000.0,375000.0,302875.81,238630.31,375000.0,375000.0,,,,,
0.161,3055897,-9562.57,29827.26,375000.0,375000.0,302886.15,238648.43,375000.0,375000.0,,,,,
0.162,3055898,-9565.83,29821.27,375000.0,375000.0,302882.17,238646.8,375000.0,375000.0,,,,,
0.163,3055899,-9585.23,29799.05,375000.0,375000.0,302864.29,238624.96,375000.0,375000.0,,,,,
0.164,3055900,-9615.68,29766.1,375000.0,375000.0,302836.87,238588.59,375000.0,375000.0,,,,,
0.165,3055901,-9649.05,29730.96,375000.0,375000.0,302806.5,238547.57,375000.0,375000.0,,,,,
0.166,3055902,-9677.34,29701.97,375000.0,375000.0,302779.27,238512.01,375000.0,375000.0,,,,,
0.167,3055903,-9695.51,29684.27,375000.0,375000.0,302758.68,238488.39,375000.0,375000.0,,,,,
0.168,3055904,-9702.74,29678.52,375000.0,375000.0,302744.91,238477.48,375000.0,375000.0,,,,,
0.169,3055905,-9701.66,29681.62,375000.0,375000.0,302735.95,238475.21,375000.0,375000.0,,,,,
0.170,3055906,-9696.07,29689.17,375000.0,375000.0,302729.82,238475.95,375000.0,375000.0,,,,,
0.171,3055907,-9688.61,29698.04,375000.0,375000.0,302726.46,238476.27,375000.0,375000.0,,,,,
0.172,3055908,-9679.49,29707.8,375000.0,375000.0,302728.31,238477.23,375000.0,375000.0,,,,,
0.173,3055909,-9667.0,29720.32,375000.0,375000.0,302738.95,238483.61,375000.0,375000.0,,,,,
0.174,3055910,-9649.33,29737.83,375000.0,375000.0,302760.65,238500.7,375000.0,375000.0,,,,,
0.175,3055911,-9626.71,29760.59,375000.0,375000.0,302792.02,238530.2,375000.0,375000.0,,,,,
0.176,3055912,-9602.45,29785.5,375000.0,375000.0,302827.28,238567.77,375000.0,375000.0,,,,,
0.177,3055913,-9582.32,29806.62,375000.0,375000.0,302857.72,238603.7,375000.0,375000.0,,,,,
0.178,3055914,-9572.37,29817.35,375000.0,375000.0,302874.77,238626.61,375000.0,375000.0,,,,,
0.179,3055915,-9576.36,29813.28,375000.0,375000.0,302873.53,238628.55,375000.0,375000.0,,,,,
0.180,3055916,-9593.98,29794.35,375000.0,375000.0,302854.79,238608.77,375000.0,375000.0,,,,,
0.181,3055917,-9620.8,29765.14,375000.0,375000.0,302824.79,238574.25,375000.0,375000.0,,,,,
0.182,3055918,-9649.95,29733.17,375000.0,375000.0,302792.67,238536.71,375000.0,375000.0,,,,,
0.183,3055919,-9674.75,29706.0,375000.0,375000.0,302766.92,238507.53,375000.0,375000.0,,,,,
0.184,3055920,-9691.0,29688.55,375000.0,375000.0,302752.36,238493.17,375000.0,375000.0,,,,,
0.185,3055921,-9697.88,29681.78,375000.0,375000.0,302749.16,238493.31,375000.0,375000.0,,,,,
0.186,3055922,-9697.33,29683.42,375000.0,375000.0,302753.96,238502.46,375000.0,375000.0,,,,,
0.187,3055923,-9692.15,29689.95,375000.0,375000.0,302762.52,238513.86,375000.0,375000.0,,,,,
0.188,3055924,-9684.25,29698.88,375000.0,375000.0,302772.14,238523.47,375000.0,375000.0,,,,,
0.189,3055925,-9673.81,29709.93,375000.0,375000.0,302782.81,238531.77,375000.0,375000.0,,,,,
0.190,3055926,-9659.8,29724.55,375000.0,375000.0,302796.4,238542.61,375000.0,375000.0,,,,,
0.191,3055927,-9641.51,29744.09,375000.0,375000.0,302814.53,238559.79,375000.0,375000.0,,,,,
0.192,3055928,-9620.14,29767.75,375000.0,375000.0,302836.47,238583.64,375000.0,375000.0,,,,,
0.193,3055929,-9599.32,29791.65,375000.0,375000.0,302858.36,238609.56,375000.0,375000.0,,,,,
0.194,3055930,-9584.32,29809.6,375000.0,375000.0,302874.22,238629.52,375000.0,375000.0,,,,,
0.195,3055931,-9580.0,29815.5,375000.0,375000.0,302878.48,238635.75,375000.0,375000.0,,,,,
0.196,3055932,-9588.68,29806.11,375000.0,375000.0,302868.59,238624.63,375000.0,375000.0,,,,,
0.197,3055933,-9608.89,29782.83,375000.0,375000.0,302846.41,238598.75,375000.0,375000.0,,,,,
0.198,3055934,-9635.72,29751.47,375000.0,375000.0,302817.7,238565.85,375000.0,375000.0,,,,,
0.199,3055935,-9662.61,29720.13,375000.0,375000.0,302789.85,238535.43,375000.0,375000.0,,,,,
0.200,3055936,-9683.78,29696.08,375000.0,375000.0,302768.99,238514.74,375000.0,375000.0,,,,,
0.201,3055937,-9696.04,29683.23,375000.0,375000.0,302757.97,238506.15,375000.0,375000.0,,,,,
0.202,3055938,-9699.37,29681.37,375000.0,375000.0,302755.98,238507.27,375000.0,375000.0,,,,,
0.203,3055939,-9695.95,29687.27,375000.0,375000.0,302759.97,238513.36,375000.0,375000.0,,,,,
0.204,3055940,-9688.37,29697.15,375000.0,375000.0,302766.88,238520.62,375000.0,375000.0,,,,,
0.205,3055941,-9678.15,29708.8,375000.0,375000.0,302775.43,238528.34,375000.0,375000.0,,,,,
0.206,3055942,-9665.23,29722.37,375000.0,375000.0,302786.51,238538.75,375000.0,375000.0,,,,,
0.207,3055943,-9648.85,29739.33,375000.0,375000.0,302801.97,238554.87,375000.0,375000.0,,,,,
0.208,3055944,-9629.03,29760.41,375000.0,375000.0,302822.54,238577.56,375000.0,375000.0,,,,,
0.209,3055945,-9607.87,29783.7,375000.0,375000.0,302846.21,238603.7,375000.0,375000.0,,,,,
0.210,3055946,-9589.65,29804.29,375000.0,375000.0,302867.94,238626.55,375000.0,375000.0,,,,,
0.211,3055947,-9579.52,29815.82,375000.0,375000.0,302881.14,238638.35,375000.0,375000.0,,,,,
0.212,3055948,-9581.44,29813.23,375000.0,375000.0,302880.27,238633.66,375000.0,375000.0,,,,,
0.213,3055949,-9596.22,29795.29,375000.0,375000.0,302863.3,238611.98,375000.0,375000.0,,,,,
0.214,3055950,-9620.93,29765.59,375000.0,375000.0,302832.85,238578.08,375000.0,375000.0,,,,,
0.215,3055951,-9649.83,29731.32,375000.0,375000.0,302795.49,238540.19,375000.0,375000.0,,,,,
0.216,3055952,-9676.55,29700.5,375000.0,375000.0,302759.47,238506.74,375000.0,375000.0,,,,,
0.217,3055953,-9696.34,29678.95,375000.0,375000.0,302731.9,238483.52,375000.0,375000.0,,,,,
0.218,3055954,-9707.37,29668.57,375000.0,375000.0,302716.78,238472.37,375000.0,375000.0,,,,,
0.219,3055955,-9710.49,29667.66,375000.0,375000.0,302714.38,238471.78,375000.0,375000.0,,,,,
0.220,3055956,-9707.8,29672.96,375000.0,375000.0,302722.37,238478.88,375000.0,375000.0,,,,,
0.221,3055957,-9700.88,29681.96,375000.0,375000.0,302737.51,238491.41,375000.0,375000.0,,,,,
0.222,3055958,-9689.86,29694.34,375000.0,375000.0,302757.25,238508.55,375000.0,375000.0,,,,,
0.223,3055959,-9673.85,29711.47,375000.0,375000.0,302780.15,238530.44,375000.0,375000.0,,,,,
0.224,3055960,-9652.45,29734.45,375000.0,375000.0,302805.22,238556.62,375000.0,375000.0,,,,,
0.225,3055961,-9627.34,29761.96,375000.0,375000.0,302830.71,238584.68,375000.0,375000.0,,,,,
0.226,3055962,-9602.9,29789.3,375000.0,375000.0,302853.26,238609.96,375000.0,375000.0,,,,,
0.227,3055963,-9585.27,29809.44,375000.0,375000.0,302868.26,238626.69,375000.0,375000.0,,,,,
0.228,3055964,-9579.98,29815.78,375000.0,375000.0,302871.29,238630.08,375000.0,375000.0,,,,,
0.229,3055965,-9589.47,29805.19,375000.0,375000.0,302860.18,238618.31,375000.0,375000.0,,,,,
0.230,3055966,-9611.69,29779.8,375000.0,375000.0,302836.49,238593.53,375000.0,375000.0,,,,,
0.231,3055967,-9640.61,29746.44,375000.0,375000.0,302805.52,238561.23,375000.0,375000.0,,,,,
0.232,3055968,-9668.5,29713.94,375000.0,375000.0,302774.66,238528.4,375000.0,375000.0,,,,,
0.233,3055969,-9688.96,29689.65,375000.0,375000.0,302750.78,238501.31,375000.0,375000.0,,,,,
0.234,3055970,-9699.18,29676.83,375000.0,375000.0,302737.82,238483.93,375000.0,375000.0,,,,,
0.235,3055971,-9700.39,29674.22,375000.0,375000.0,302735.76,238477.51,375000.0,375000.0,,,,,
0.236,3055972,-9696.3,29677.77,375000.0,375000.0,302741.41,238481.37,375000.0,375000.0,,,,,
0.237,3055973,-9690.61,29683.56,375000.0,375000.0,302750.65,238494.1,375000.0,375000.0,,,,,
0.238,3055974,-9684.76,29690.14,375000.0,375000.0,302760.78,238514.47,375000.0,375000.0,,,,,
0.239,3055975,-9677.4,29699.02,375000.0,375000.0,302771.76,238541.46,375000.0,375000.0,,,,,
0.240,3055976,-9665.63,29713.2,375000.0,375000.0,302785.63,238573.46,375000.0,375000.0,,,,,
0.241,3055977,-9647.43,29734.41,375000.0,375000.0,302804.36,238607.24,375000.0,375000.0,,,,,
0.242,3055978,-9623.83,29760.94,375000.0,375000.0,302827.51,238637.56,375000.0,375000.0,,,,,
0.243,3055979,-9599.49,29787.26,375000.0,375000.0,302851.06,238657.92,375000.0,375000.0,,,,,
0.244,3055980,-9581.28,29805.77,375000.0,375000.0,302868.35,238662.43,375000.0,375000.0,,,,,
0.245,3055981,-9575.49,29810.0,375000.0,375000.0,302872.82,238648.06,375000.0,375000.0,,,,,
0.246,3055982,-9584.99,29797.58,375000.0,375000.0,302861.31,238616.27,375000.0,375000.0,,,,,
0.247,3055983,-9607.84,29771.42,375000.0,375000.0,302836.17,238573.09,375000.0,375000.0,,,,,
0.248,3055984,-9637.95,29738.68,375000.0,375000.0,302804.8,238527.5,375000.0,375000.0,,,,,
0.249,3055985,-9667.57,29707.86,375000.0,375000.0,302776.84,238488.61,375000.0,375000.0,,,,,
0.250,3055986,-9690.23,29685.59,375000.0,375000.0,302760.03,238462.84,375000.0,375000.0,,,,,
0.251,3055987,-9702.82,29674.58,375000.0,375000.0,302757.03,238452.22,375000.0,375000.0,,,,,
0.252,3055988,-9705.81,29673.55,375000.0,375000.0,302764.63,238454.56,375000.0,375000.0,,,,,
0.253,3055989,-9701.89,29679.0,375000.0,375000.0,302775.9,238465.25,375000.0,375000.0,,,,,
0.254,3055990,-9693.76,29687.65,375000.0,375000.0,302784.09,238479.74,375000.0,375000.0,,,,,
0.255,3055991,-9682.55,29698.17,375000.0,375000.0,302786.21,238495.43,375000.0,375000.0,,,,,
0.256,3055992,-9667.74,29711.32,375000.0,375000.0,302784.49,238512.14,375000.0,375000.0,,,,,
0.257,3055993,-9648.34,29728.52,375000.0,375000.0,302784.69,238530.96,375000.0,375000.0,,,,,
0.258,3055994,-9624.79,29749.87,375000.0,375000.0,302792.39,238552.36,375000.0,375000.0,,,,,
0.259,3055995,-9600.14,29772.78,375000.0,375000.0,302809.18,238574.58,375000.0,375000.0,,,,,
0.260,3055996,-9579.71,29792.13,375000.0,375000.0,302830.95,238593.41,375000.0,375000.0,,,,,
0.261,3055997,-9569.27,29802.07,375000.0,375000.0,302849.3,238603.56,375000.0,375000.0,,,,,
0.262,3055998,-9572.56,29798.51,375000.0,375000.0,302855.49,238601.08,375000.0,375000.0,,,,,
0.263,3055999,-9589.4,29781.16,375000.0,375000.0,302844.86,238585.39,375000.0,375000.0,,,,,
0.264,3056000,-9615.45,29753.99,375000.0,375000.0,302819.4,238560.01,375000.0,375000.0,,,,,
0.265,3056001,-9643.83,29723.84,375000.0,375000.0,302787.04,238531.44,375000.0,375000.0,,,,,
0.266,3056002,-9667.78,29697.91,375000.0,375000.0,302758.04,238506.67,375000.0,375000.0,,,,,
0.267,3056003,-9683.16,29681.18,375000.0,375000.0,302740.37,238490.61,375000.0,375000.0,,,,,
0.268,3056004,-9689.47,29675.04,375000.0,375000.0,302736.43,238484.6,375000.0,375000.0,,,,,
0.269,3056005,-9689.19,29677.62,375000.0,375000.0,302742.82,238486.83,375000.0,375000.0,,,,,
0.270,3056006,-9685.64,29685.54,375000.0,375000.0,302753.13,238494.07,375000.0,375000.0,,,,,
0.271,3056007,-9680.83,29696.02,375000.0,375000.0,302762.0,238503.91,375000.0,375000.0,,,,,
0.272,3056008,-9674.36,29708.2,375000.0,375000.0,302768.19,238516.0,375000.0,375000.0,,,,,
0.273,3056009,-9664.05,29723.04,375000.0,375000.0,302774.9,238531.71,375000.0,375000.0,,,,,
0.274,3056010,-9647.79,29741.85,375000.0,375000.0,302787.18,238552.36,375000.0,375000.0,,,,,
0.275,3056011,-9625.77,29764.38,375000.0,375000.0,302808.04,238577.19,375000.0,375000.0,,,,,
0.276,3056012,-9601.53,29787.56,375000.0,375000.0,302835.41,238602.29,375000.0,375000.0,,,,,
0.277,3056013,-9581.33,29805.9,375000.0,375000.0,302861.97,238621.35,375000.0,375000.0,,,,,
0.278,3056014,-9571.79,29813.26,375000.0,375000.0,302878.02,238627.97,375000.0,375000.0,,,,,
0.279,3056015,-9577.06,29805.6,375000.0,375000.0,302875.91,238618.53,375000.0,375000.0,,,,,
0.280,3056016,-9596.8,29783.01,375000.0,375000.0,302853.9,238594.08,375000.0,375000.0,,,,,
0.281,3056017,-9626.05,29750.22,375000.0,375000.0,302817.32,238560.24,375000.0,375000.0,,,,,
0.282,3056018,-9657.03,29715.17,375000.0,375000.0,302776.35,238525.16,375000.0,375000.0,,,,,
0.283,3056019,-9682.15,29686.08,375000.0,375000.0,302741.88,238496.48,375000.0,375000.0,,,,,
0.284,3056020,-9696.73,29668.6,375000.0,375000.0,302721.24,238478.78,375000.0,375000.0,,,,,
0.285,3056021,-9700.18,29664.15,375000.0,375000.0,302716.09,238472.62,375000.0,375000.0,,,,,
0.286,3056022,-9695.32,29670.14,375000.0,375000.0,302723.1,238475.57,375000.0,375000.0,,,,,
0.287,3056023,-9686.17,29682.05,375000.0,375000.0,302736.88,238484.31,375000.0,375000.0,,,,,
0.288,3056024,-9675.64,29695.95,375000.0,375000.0,302753.08,238496.71,375000.0,375000.0,,,,,
0.289,3056025,-9664.27,29710.25,375000.0,375000.0,302770.18,238512.52,375000.0,375000.0,,,,,
0.290,3056026,-9650.63,29725.72,375000.0,375000.0,302788.99,238532.53,375000.0,375000.0,,,,,
0.291,3056027,-9633.16,29743.99,375000.0,375000.0,302810.49,238556.75,375000.0,375000.0,,,,,
0.292,3056028,-9612.19,29765.23,375000.0,375000.0,302833.68,238582.88,375000.0,375000.0,,,,,
0.293,3056029,-9591.05,29786.69,375000.0,375000.0,302854.67,238606.03,375000.0,375000.0,,,,,
0.294,3056030,-9575.29,29802.98,375000.0,375000.0,302867.92,238620.19,375000.0,375000.0,,,,,
0.295,3056031,-9570.6,29808.15,375000.0,375000.0,302868.77,238620.66,375000.0,375000.0,,,,,
0.296,3056032,-9580.06,29798.49,375000.0,375000.0,302855.83,238606.29,375000.0,375000.0,,,,,
0.297,3056033,-9602.49,29774.8,375000.0,375000.0,302832.03,238580.32,375000.0,375000.0,,,,,
0.298,3056034,-9632.55,29742.59,375000.0,375000.0,302803.47,238549.25,375000.0,375000.0,,,,,
0.299,3056035,-9662.75,29710.15,375000.0,375000.0,302776.9,238520.4,375000.0,375000.0,,,,,
0.300,3056036,-9686.33,29685.31,375000.0,375000.0,302757.07,238499.27,375000.0,375000.0,,,,,
0.301,3056037,-9699.65,29672.5,375000.0,375000.0,302745.41,238487.94,375000.0,375000.0,,,,,
0.302,3056038,-9702.9,29671.53,375000.0,375000.0,302740.46,238485.31,375000.0,375000.0,,,,,
0.303,3056039,-9699.06,29678.61,375000.0,375000.0,302739.64,238488.86,375000.0,375000.0,,,,,
0.304,3056040,-9691.6,29688.96,375000.0,375000.0,302741.22,238496.75,375000.0,375000.0,,,,,
0.305,3056041,-9682.49,29699.52,375000.0,375000.0,302745.24,238509.14,375000.0,375000.0,,,,,
0.306,3056042,-9671.47,29710.19,375000.0,375000.0,302752.99,238527.87,375000.0,375000.0,,,,,
0.307,3056043,-9657.06,29722.97,375000.0,375000.0,302765.49,238554.61,375000.0,375000.0,,,,,
0.308,3056044,-9638.49,29739.67,375000.0,375000.0,302781.91,238588.48,375000.0,375000.0,,,,,
0.309,3056045,-9617.55,29759.53,375000.0,375000.0,302799.13,238624.62,375000.0,375000.0,,,,,
0.310,3056046,-9598.9,29778.3,375000.0,375000.0,302812.59,238654.61,375000.0,375000.0,,,,,
0.311,3056047,-9588.64,29789.55,375000.0,375000.0,302818.12,238668.9,375000.0,375000.0,,,,,
0.312,3056048,-9591.72,29787.51,375000.0,375000.0,302813.6,238660.42,375000.0,375000.0,,,,,
0.313,3056049,-9609.48,29770.14,375000.0,375000.0,302799.78,238627.72,375000.0,375000.0,,,,,
0.314,3056050,-9638.61,29740.49,375000.0,375000.0,302779.67,238576.32,375000.0,375000.0,,,,,
0.315,3056051,-9672.25,29705.85,375000.0,375000.0,302757.09,238517.38,375000.0,375000.0,,,,,
0.316,3056052,-9702.57,29674.78,375000.0,375000.0,302735.27,238464.27,375000.0,375000.0,,,,,
0.317,3056053,-9723.63,29653.72,375000.0,375000.0,302716.1,238428.23,375000.0,375000.0,,,,,
0.318,3056054,-9733.21,29644.9,375000.0,375000.0,302700.49,238414.96,375000.0,375000.0,,,,,
0.319,3056055,-9732.66,29646.4,375000.0,375000.0,302689.29,238423.41,375000.0,375000.0,,,,,
0.320,3056056,-9725.23,29654.24,375000.0,375000.0,302684.05,238447.11,375000.0,375000.0,,,,,
0.321,3056057,-9713.82,29665.11,375000.0,375000.0,302687.02,238477.37,375000.0,375000.0,,,,,
0.322,3056058,-9699.6,29678.14,375000.0,375000.0,302700.21,238506.83,375000.0,375000.0,,,,,
0.323,3056059,-9682.09,29694.64,375000.0,375000.0,302723.94,238531.77,375000.0,375000.0,,,,,
0.324,3056060,-9660.7,29716.19,375000.0,375000.0,302755.83,238552.32,375000.0,375000.0,,,,,
0.325,3056061,-9636.42,29742.2,375000.0,375000.0,302790.69,238570.74,375000.0,375000.0,,,,,
0.326,3056062,-9612.82,29768.7,375000.0,375000.0,302821.78,238588.72,375000.0,375000.0,,,,,
0.327,3056063,-9595.3,29789.12,375000.0,375000.0,302842.67,238605.31,375000.0,375000.0,,,,,
0.328,3056064,-9589.03,29796.91,375000.0,375000.0,302849.24,238616.51,375000.0,375000.0,,,,,
0.329,3056065,-9596.58,29788.61,375000.0,375000.0,302840.82,238616.81,375000.0,375000.0,,,,,
0.330,3056066,-9616.51,29765.7,375000.0,375000.0,302820.16,238602.02,375000.0,375000.0,,,,,
0.331,3056067,-9643.75,29734.22,375000.0,375000.0,302792.36,238571.86,375000.0,375000.0,,,,,
0.332,3056068,-9671.54,29702.31,375000.0,375000.0,302763.26,238531.01,375000.0,375000.0,,,,,
0.333,3056069,-9693.95,29677.02,375000.0,375000.0,302738.03,238488.13,375000.0,375000.0,,,,,
0.334,3056070,-9707.76,29662.0,375000.0,375000.0,302720.28,238453.0,375000.0,375000.0,,,,,
0.335,3056071,-9712.77,29657.08,375000.0,375000.0,302711.91,238433.26,375000.0,375000.0,,,,,
0.336,3056072,-9710.66,29659.83,375000.0,375000.0,302713.4,238431.97,375000.0,375000.0,,,,,
0.337,3056073,-9703.24,29667.8,375000.0,375000.0,302724.3,238447.14,375000.0,375000.0,,,,,
0.338,3056074,-9691.24,29680.14,375000.0,375000.0,302743.51,238473.23,375000.0,375000.0,,,,,
0.339,3056075,-9674.24,29697.57,375000.0,375000.0,302769.35,238503.65,375000.0,375000.0,,,,,
0.340,3056076,-9651.92,29720.86,375000.0,375000.0,302799.47,238533.21,375000.0,375000.0,,,,,
0.341,3056077,-9625.51,29748.92,375000.0,375000.0,302830.74,238559.2,375000.0,375000.0,,,,,
0.342,3056078,-9598.57,29777.87,375000.0,375000.0,302859.49,238580.98,375000.0,375000.0,,,,,
0.343,3056079,-9576.34,29801.74,375000.0,375000.0,302881.89,238598.55,375000.0,375000.0,,,,,
0.344,3056080,-9563.97,29814.69,375000.0,375000.0,302894.67,238611.13,375000.0,375000.0,,,,,
0.345,3056081,-9564.46,29813.49,375000.0,375000.0,302895.82,238616.63,375000.0,375000.0,,,,,
0.346,3056082,-9577.4,29798.91,375000.0,375000.0,302885.15,238612.46,375000.0,375000.0,,,,,
0.347,3056083,-9599.15,29775.32,375000.0,375000.0,302864.42,238597.13,375000.0,375000.0,,,,,
0.348,3056084,-9624.46,29748.69,375000.0,375000.0,302837.16,238571.8,375000.0,375000.0,,,,,
0.349,3056085,-9648.36,29724.25,375000.0,375000.0,302807.95,238540.83,375000.0,375000.0,,,,,
0.350,3056086,-9667.56,29704.95,375000.0,375000.0,302781.58,238510.83,375000.0,375000.0,,,,,
0.351,3056087,-9680.73,29691.6,375000.0,375000.0,302762.22,238488.78,375000.0,375000.0,,,,,
0.352,3056088,-9687.64,29684.04,375000.0,375000.0,302752.69,238479.7,375000.0,375000.0,,,,,
0.353,3056089,-9688.18,29682.53,375000.0,375000.0,302754.14,238485.12,375000.0,375000.0,,,,,
0.354,3056090,-9681.92,29688.16,375000.0,375000.0,302765.84,238502.7,375000.0,375000.0,,,,,
0.355,3056091,-9668.65,29701.8,375000.0,375000.0,302785.34,238527.2,375000.0,375000.0,,,,,
0.356,3056092,-9649.51,29722.5,375000.0,375000.0,302808.75,238552.23,375000.0,375000.0,,,,,
0.357,3056093,-9627.73,29746.32,375000.0,375000.0,302831.33,238572.11,375000.0,375000.0,,,,,
0.358,3056094,-9608.2,29766.86,375000.0,375000.0,302848.39,238583.31,375000.0,375000.0,,,,,
0.359,3056095,-9595.75,29777.65,375000.0,375000.0,302856.41,238585.04,375000.0,375000.0,,,,,
0.360,3056096,-9592.85,29775.25,375000.0,375000.0,302854.13,238579.15,375000.0,375000.0,,,,,
0.360,3056096,-9598.04,29761.44,375000.0,375000.0,302843.23,238569.29,375000.0,375000.0,,,,,
0.689,3056425,-9606.13,29743.04,375000.0,375000.0,302828.05,238559.74,375000.0,375000.0,,,,,
0.690,3056426,-9610.43,29729.07,375000.0,375000.0,302814.25,238554.04,375000.0,375000.0,,,,,
0.691,3056427,-9605.99,29726.5,375000.0,375000.0,302806.69,238553.78,375000.0,375000.0,,,,,
0.692,3056428,-9592.37,29736.7,375000.0,375000.0,302807.38,238557.97,375000.0,375000.0,,,,,
0.693,3056429,-9574.32,29754.41,375000.0,375000.0,302814.32,238563.27,375000.0,375000.0,,,,,
0.694,3056430,-9559.9,29770.0,375000.0,375000.0,302822.16,238565.13,375000.0,375000.0,,,,,
0.695,3056431,-9556.88,29773.9,375000.0,375000.0,302824.38,238559.65,375000.0,375000.0,,,,,
0.696,3056432,-9569.04,29761.14,375000.0,375000.0,302816.31,238545.37,375000.0,375000.0,,,,,
0.697,3056433,-9594.36,29733.62,375000.0,375000.0,302797.6,238524.13,375000.0,375000.0,,,,,
0.698,3056434,-9625.87,29699.13,375000.0,375000.0,302772.76,238500.65,375000.0,375000.0,,,,,
0.699,3056435,-9654.75,29667.61,375000.0,375000.0,302749.5,238480.69,375000.0,375000.0,,,,,
0.700,3056436,-9674.12,29646.71,375000.0,375000.0,302735.39,238468.74,375000.0,375000.0,,,,,
0.701,3056437,-9681.58,29638.9,375000.0,375000.0,302734.58,238466.27,375000.0,375000.0,,,,,
0.702,3056438,-9679.36,29641.35,375000.0,375000.0,302745.93,238471.5,375000.0,375000.0,,,,,
0.703,3056439,-9672.18,29648.56,375000.0,375000.0,302763.84,238480.7,375000.0,375000.0,,,,,
0.704,3056440,-9664.27,29655.92,375000.0,375000.0,302781.06,238490.53,375000.0,375000.0,,,,,
0.705,3056441,-9657.09,29662.22,375000.0,375000.0,302792.31,238499.9,375000.0,375000.0,,,,,
0.706,3056442,-9649.12,29669.72,375000.0,375000.0,302796.58,238510.32,375000.0,375000.0,,,,,
0.707,3056443,-9637.61,29681.86,375000.0,375000.0,302797.14,238524.55,375000.0,375000.0,,,,,
0.708,3056444,-9621.2,29700.18,375000.0,375000.0,302799.02,238544.06,375000.0,375000.0,,,,,
0.709,3056445,-9601.83,29722.22,375000.0,375000.0,302805.65,238566.91,375000.0,375000.0,,,,,
0.710,3056446,-9584.59,29741.81,375000.0,375000.0,302816.37,238587.41,375000.0,375000.0,,,,,
0.711,3056447,-9575.7,29751.72,375000.0,375000.0,302826.26,238597.92,375000.0,375000.0,,,,,
0.712,3056448,-9579.52,29747.12,375000.0,375000.0,302828.58,238592.23,375000.0,375000.0,,,,,
0.713,3056449,-9596.27,29728.17,375000.0,375000.0,302818.37,238568.71,375000.0,375000.0,,,,,
0.714,3056450,-9621.68,29700.19,375000.0,375000.0,302795.33,238531.68,375000.0,375000.0,,,,,
0.715,3056451,-9648.79,29671.31,375000.0,375000.0,302764.46,238490.17,375000.0,375000.0,,,,,
0.716,3056452,-9670.86,29648.92,375000.0,375000.0,302734.01,238454.48,375000.0,375000.0,,,,,
0.717,3056453,-9684.04,29636.75,375000.0,375000.0,302711.86,238432.34,375000.0,375000.0,,,,,
0.718,3056454,-9688.22,29634.04,375000.0,375000.0,302702.35,238426.37,375000.0,375000.0,,,,,
0.719,3056455,-9686.08,29637.02,375000.0,375000.0,302705.07,238434.02,375000.0,375000.0,,,,,
0.720,3056456,-9680.79,29641.79,375000.0,375000.0,302716.11,238449.87,375000.0,375000.0,,,,,
0.721,3056457,-9673.96,29646.84,375000.0,375000.0,302730.81,238468.66,375000.0,375000.0,,,,,
0.722,3056458,-9664.9,29653.76,375000.0,375000.0,302746.36,238487.67,375000.0,375000.0,,,,,
0.723,3056459,-9651.64,29665.75,375000.0,375000.0,302762.61,238506.92,375000.0,375000.0,,,,,
0.724,3056460,-9633.04,29684.94,375000.0,375000.0,302780.84,238527.58,375000.0,375000.0,,,,,
0.725,3056461,-9610.6,29709.98,375000.0,375000.0,302801.37,238549.59,375000.0,375000.0,,,,,
0.726,3056462,-9588.85,29735.46,375000.0,375000.0,302821.68,238570.2,375000.0,375000.0,,,,,
0.727,3056463,-9573.98,29753.66,375000.0,375000.0,302836.53,238584.41,375000.0,375000.0,,,,,
0.728,3056464,-9571.17,29757.75,375000.0,375000.0,302840.1,238587.18,375000.0,375000.0,,,,,
0.729,3056465,-9582.2,29744.99,375000.0,375000.0,302829.17,238576.13,375000.0,375000.0,,,,,
0.730,3056466,-9604.36,29718.12,375000.0,375000.0,302805.37,238553.26,375000.0,375000.0,,,,,
0.731,3056467,-9631.51,29684.49,375000.0,375000.0,302775.25,238524.52,375000.0,375000.0,,,,,
0.732,3056468,-9656.52,29653.03,375000.0,375000.0,302747.69,238497.44,375000.0,375000.0,,,,,
0.733,3056469,-9674.08,29630.82,375000.0,375000.0,302730.15,238478.12,375000.0,375000.0,,,,,
0.734,3056470,-9682.42,29620.76,375000.0,375000.0,302725.58,238469.04,375000.0,375000.0,,,,,
0.735,3056471,-9683.18,29621.27,375000.0,375000.0,302731.68,238468.84,375000.0,375000.0,,,,,
0.736,3056472,-9679.73,29628.1,375000.0,375000.0,302742.79,238474.05,375000.0,375000.0,,,,,
0.737,3056473,-9674.88,29637.06,375000.0,375000.0,302753.3,238481.59,375000.0,375000.0,,,,,
0.738,3056474,-9669.29,29646.16,375000.0,375000.0,302760.67,238490.54,375000.0,375000.0,,,,,
0.739,3056475,-9661.49,29656.21,375000.0,375000.0,302766.29,238502.2,375000.0,375000.0,,,,,
0.740,3056476,-9649.29,29669.5,375000.0,375000.0,302773.9,238518.46,375000.0,375000.0,,,,,
0.741,3056477,-9631.85,29687.59,375000.0,375000.0,302786.49,238539.55,375000.0,375000.0,,,,,
0.742,3056478,-9611.16,29709.39,375000.0,375000.0,302803.66,238562.68,375000.0,375000.0,,,,,
0.743,3056479,-9591.92,29730.68,375000.0,375000.0,302821.03,238582.41,375000.0,375000.0,,,,,
0.744,3056480,-9579.98,29745.44,375000.0,375000.0,302832.05,238592.7,375000.0,375000.0,,,,,
0.745,3056481,-9579.83,29748.32,375000.0,375000.0,302831.36,238589.68,375000.0,375000.0,,,,,
0.746,3056482,-9592.56,29737.09,375000.0,375000.0,302817.69,238573.51,375000.0,375000.0,,,,,
0.747,3056483,-9615.25,29713.83,375000.0,375000.0,302794.74,238548.45,375000.0,375000.0,,,,,
0.748,3056484,-9642.02,29684.27,375000.0,375000.0,302769.53,238521.07,375000.0,375000.0,,,,,
0.749,3056485,-9666.34,29655.67,375000.0,375000.0,302749.21,238497.65,375000.0,375000.0,,,,,
0.750,3056486,-9683.45,29634.16,375000.0,375000.0,302737.93,238482.04,375000.0,375000.0,,,,,
0.751,3056487,-9691.67,29622.84,375000.0,375000.0,302735.58,238474.92,375000.0,375000.0,,,,,
0.752,3056488,-9692.29,29621.39,375000.0,375000.0,302738.85,238474.76,375000.0,375000.0,,,,,
0.753,3056489,-9688.03,29627.2,375000.0,375000.0,302743.79,238479.5,375000.0,375000.0,,,,,
0.754,3056490,-9681.24,29637.23,375000.0,375000.0,302748.45,238487.98,375000.0,375000.0,,,,,
0.755,3056491,-9672.71,29649.61,375000.0,375000.0,302753.8,238500.25,375000.0,375000.0,,,,,
0.756,3056492,-9661.7,29664.05,375000.0,375000.0,302762.74,238516.76,375000.0,375000.0,,,,,
0.757,3056493,-9647.2,29681.07,375000.0,375000.0,302777.62,238537.02,375000.0,375000.0,,,,,
0.758,3056494,-9629.49,29700.48,375000.0,375000.0,302798.0,238558.82,375000.0,375000.0,,,,,
0.759,3056495,-9611.08,29720.2,375000.0,375000.0,302819.91,238578.39,375000.0,375000.0,,,,,
0.760,3056496,-9596.41,29736.22,375000.0,375000.0,302837.21,238591.72,375000.0,375000.0,,,,,
0.761,3056497,-9590.21,29743.83,375000.0,375000.0,302844.25,238596.08,375000.0,375000.0,,,,,
0.762,3056498,-9595.43,29739.63,375000.0,375000.0,302838.54,238591.0,375000.0,375000.0,,,,,
0.763,3056499,-9611.7,29723.33,375000.0,375000.0,302821.81,238578.18,375000.0,375000.0,,,,,
0.764,3056500,-9635.19,29698.28,375000.0,375000.0,302799.12,238560.44,375000.0,375000.0,,,,,
0.765,3056501,-9659.97,29670.45,375000.0,375000.0,302776.49,238540.45,375000.0,375000.0,,,,,
0.766,3056502,-9680.32,29646.27,375000.0,375000.0,302758.38,238520.02,375000.0,375000.0,,,,,
0.767,3056503,-9692.72,29630.33,375000.0,375000.0,302746.31,238500.27,375000.0,375000.0,,,,,
0.768,3056504,-9696.81,29624.05,375000.0,375000.0,302739.28,238482.57,375000.0,375000.0,,,,,
0.769,3056505,-9694.74,29625.89,375000.0,375000.0,302735.52,238469.34,375000.0,375000.0,,,,,
0.770,3056506,-9689.38,29632.86,375000.0,375000.0,302734.39,238464.02,375000.0,375000.0,,,,,
0.771,3056507,-9682.57,29642.46,375000.0,375000.0,302737.15,238469.98,375000.0,375000.0,,,,,
0.772,3056508,-9674.2,29653.9,375000.0,375000.0,302746.24,238488.68,375000.0,375000.0,,,,,
0.773,3056509,-9662.76,29667.92,375000.0,375000.0,302763.38,238518.13,375000.0,375000.0,,,,,
0.774,3056510,-9646.98,29685.42,375000.0,375000.0,302787.6,238552.56,375000.0,375000.0,,,,,
0.775,3056511,-9627.6,29705.7,375000.0,375000.0,302814.46,238583.68,375000.0,375000.0,,,,,
0.776,3056512,-9608.14,29725.44,375000.0,375000.0,302837.11,238603.29,375000.0,375000.0,,,,,
0.777,3056513,-9594.12,29739.27,375000.0,375000.0,302848.67,238606.05,375000.0,375000.0,,,,,
0.778,3056514,-9590.93,29741.7,375000.0,375000.0,302845.02,238591.42,375000.0,375000.0,,,,,
0.779,3056515,-9601.39,29729.69,375000.0,375000.0,302826.51,238563.72,375000.0,375000.0,,,,,
0.780,3056516,-9624.22,29704.41,375000.0,375000.0,302797.86,238530.49,375000.0,375000.0,,,,,
0.781,3056517,-9654.16,29671.26,375000.0,375000.0,302766.36,238499.84,375000.0,375000.0,,,,,
0.782,3056518,-9683.94,29638.1,375000.0,375000.0,302739.08,238477.83,375000.0,375000.0,,,,,
0.783,3056519,-9706.92,29612.31,375000.0,375000.0,302720.5,238466.94,375000.0,375000.0,,,,,
0.784,3056520,-9719.43,29598.23,375000.0,375000.0,302711.59,238466.09,375000.0,375000.0,,,,,
0.785,3056521,-9721.53,29596.13,375000.0,375000.0,302710.49,238471.99,375000.0,375000.0,,,,,
0.786,3056522,-9716.06,29602.94,375000.0,375000.0,302714.32,238481.0,375000.0,375000.0,,,,,
0.787,3056523,-9706.63,29614.47,375000.0,375000.0,302721.08,238490.77,375000.0,375000.0,,,,,
0.788,3056524,-9695.66,29627.59,375000.0,375000.0,302730.66,238500.91,375000.0,375000.0,,,,,
0.789,3056525,-9683.57,29641.38,375000.0,375000.0,302744.4,238512.59,375000.0,375000.0,,,,,
0.790,3056526,-9669.44,29656.64,375000.0,375000.0,302763.61,238527.36,375000.0,375000.0,,,,,
0.791,3056527,-9652.58,29674.2,375000.0,375000.0,302787.88,238545.68,375000.0,375000.0,,,,,
0.792,3056528,-9634.11,29693.16,375000.0,375000.0,302814.14,238566.01,375000.0,375000.0,,,,,
0.793,3056529,-9617.38,29710.24,375000.0,375000.0,302837.14,238584.69,375000.0,375000.0,,,,,
0.794,3056530,-9606.95,29720.7,375000.0,375000.0,302851.1,238596.8,375000.0,375000.0,,,,,
0.795,3056531,-9606.59,29720.45,375000.0,375000.0,302852.0,238597.73,375000.0,375000.0,,,,,
0.796,3056532,-9617.41,29708.21,375000.0,375000.0,302839.16,238584.92,375000.0,375000.0,,,,,
0.797,3056533,-9637.05,29686.52,375000.0,375000.0,302815.6,238558.99,375000.0,375000.0,,,,,
0.798,3056534,-9660.51,29660.89,375000.0,375000.0,302786.82,238523.99,375000.0,375000.0,,,,,
0.799,3056535,-9682.17,29637.66,375000.0,375000.0,302758.75,238486.42,375000.0,375000.0,,,,,
0.800,3056536,-9697.89,29621.49,375000.0,375000.0,302735.68,238453.43,375000.0,375000.0,,,,,
0.801,3056537,-9706.23,29613.84,375000.0,375000.0,302719.34,238430.89,375000.0,375000.0,,,,,
0.802,3056538,-9708.18,29613.24,375000.0,375000.0,302709.28,238421.86,375000.0,375000.0,,,,,
0.803,3056539,-9705.69,29616.95,375000.0,375000.0,302704.32,238426.18,375000.0,375000.0,,,,,
0.804,3056540,-9700.01,29623.06,375000.0,375000.0,302704.1,238441.19,375000.0,375000.0,,,,,
0.805,3056541,-9690.84,29631.68,375000.0,375000.0,302709.67,238463.03,375000.0,375000.0,,,,,
0.806,3056542,-9676.86,29644.59,375000.0,375000.0,302722.77,238487.98,375000.0,375000.0,,,,,
0.807,3056543,-9657.25,29663.42,375000.0,375000.0,302744.16,238513.23,375000.0,375000.0,,,,,
0.808,3056544,-9633.39,29687.53,375000.0,375000.0,302771.94,238536.71,375000.0,375000.0,,,,,
0.809,3056545,-9609.43,29712.97,375000.0,375000.0,302800.97,238556.52,375000.0,375000.0,,,,,
0.810,3056546,-9591.33,29733.2,375000.0,375000.0,302824.04,238570.38,375000.0,375000.0,,,,,
0.811,3056547,-9584.63,29741.52,375000.0,375000.0,302834.45,238575.74,375000.0,375000.0,,,,,
0.812,3056548,-9592.01,29734.05,375000.0,375000.0,302828.79,238570.65,375000.0,375000.0,,,,,
0.813,3056549,-9611.87,29711.68,375000.0,375000.0,302808.6,238554.94,375000.0,375000.0,,,,,
0.814,3056550,-9638.83,29680.03,375000.0,375000.0,302779.91,238531.1,375000.0,375000.0,,,,,
0.815,3056551,-9665.82,29647.3,375000.0,375000.0,302750.86,238503.99,375000.0,375000.0,,,,,
0.816,3056552,-9686.83,29621.08,375000.0,375000.0,302728.45,238479.53,375000.0,375000.0,,,,,
0.817,3056553,-9699.01,29605.71,375000.0,375000.0,302716.05,238462.7,375000.0,375000.0,,,,,
0.818,3056554,-9703.04,29601.3,375000.0,375000.0,302712.8,238455.88,375000.0,375000.0,,,,,
0.819,3056555,-9701.77,29604.84,375000.0,375000.0,302715.2,238458.4,375000.0,375000.0,,,,,
0.820,3056556,-9698.04,29612.65,375000.0,375000.0,302719.78,238467.42,375000.0,375000.0,,,,,
0.821,3056557,-9692.84,29622.55,375000.0,375000.0,302725.37,238479.77,375000.0,375000.0,,,,,
0.822,3056558,-9684.93,29634.73,375000.0,375000.0,302733.59,238493.49,375000.0,375000.0,,,,,
0.823,3056559,-9672.08,29650.82,375000.0,375000.0,302747.33,238508.39,375000.0,375000.0,,,,,
0.824,3056560,-9653.21,29671.77,375000.0,375000.0,302768.0,238525.1,375000.0,375000.0,,,,,
0.825,3056561,-9630.11,29695.92,375000.0,375000.0,302793.34,238543.36,375000.0,375000.0,,,,,
0.826,3056562,-9607.68,29718.58,375000.0,375000.0,302817.17,238560.63,375000.0,375000.0,,,,,
0.827,3056563,-9592.38,29733.37,375000.0,375000.0,302831.46,238572.14,375000.0,375000.0,,,,,
0.828,3056564,-9589.56,29734.97,375000.0,375000.0,302829.93,238572.66,375000.0,375000.0,,,,,
0.829,3056565,-9601.01,29721.69,375000.0,375000.0,302811.2,238559.16,375000.0,375000.0,,,,,
0.830,3056566,-9623.93,29696.57,375000.0,375000.0,302779.92,238533.0,375000.0,375000.0,,,,,
0.831,3056567,-9651.93,29666.37,375000.0,375000.0,302745.13,238500.25,375000.0,375000.0,,,,,
0.832,3056568,-9677.56,29638.91,375000.0,375000.0,302716.54,238469.65,375000.0,375000.0,,,,,
0.833,3056569,-9695.17,29620.01,375000.0,375000.0,302700.63,238449.17,375000.0,375000.0,,,,,
0.834,3056570,-9702.73,29611.61,375000.0,375000.0,302698.46,238442.67,375000.0,375000.0,,,,,
0.835,3056571,-9701.78,29611.9,375000.0,375000.0,302706.17,238448.67,375000.0,375000.0,,,,,
0.836,3056572,-9695.82,29617.19,375000.0,375000.0,302717.85,238461.67,375000.0,375000.0,,,,,
0.837,3056573,-9687.93,29624.46,375000.0,375000.0,302729.03,238475.54,375000.0,375000.0,,,,,
0.838,3056574,-9679.19,29633.05,375000.0,375000.0,302738.86,238487.04,375000.0,375000.0,,,,,
0.839,3056575,-9668.51,29644.61,375000.0,375000.0,302749.97,238497.44,375000.0,375000.0,,,,,
0.840,3056576,-9654.02,29661.41,375000.0,375000.0,302765.96,238511.33,375000.0,375000.0,,,,,
0.841,3056577,-9635.17,29683.88,375000.0,375000.0,302788.31,238533.12,375000.0,375000.0,,,,,
0.842,3056578,-9614.08,29709.16,375000.0,375000.0,302814.34,238563.25,375000.0,375000.0,,,,,
0.843,3056579,-9595.55,29731.24,375000.0,375000.0,302837.54,238596.32,375000.0,375000.0,,,,,
0.844,3056580,-9585.34,29743.2,375000.0,375000.0,302850.29,238622.44,375000.0,375000.0,,,,,
0.845,3056581,-9587.6,29740.18,375000.0,375000.0,302847.44,238631.48,375000.0,375000.0,,,,,
0.846,3056582,-9602.87,29721.74,375000.0,375000.0,302828.96,238617.93,375000.0,375000.0,,,,,
0.847,3056583,-9627.5,29692.42,375000.0,375000.0,302800.23,238584.0,375000.0,375000.0,,,,,
0.848,3056584,-9654.99,29660.02,375000.0,375000.0,302769.8,238539.15,375000.0,375000.0,,,,,
0.849,3056585,-9678.57,29632.54,375000.0,375000.0,302745.79,238496.17,375000.0,375000.0,,,,,
0.850,3056586,-9693.71,29615.23,375000.0,375000.0,302732.74,238465.77,375000.0,375000.0,,,,,
0.851,3056587,-9699.47,29609.13,375000.0,375000.0,302730.47,238452.42,375000.0,375000.0,,,,,
0.852,3056588,-9697.98,29611.69,375000.0,375000.0,302735.27,238453.56,375000.0,375000.0,,,,,
0.853,3056589,-9692.59,29618.96,375000.0,375000.0,302742.66,238462.28,375000.0,375000.0,,,,,
0.854,3056590,-9685.73,29628.09,375000.0,375000.0,302749.96,238472.01,375000.0,375000.0,,,,,
0.855,3056591,-9677.59,29638.64,375000.0,375000.0,302757.48,238480.28,375000.0,375000.0,,,,,
0.856,3056592,-9666.55,29652.16,375000.0,375000.0,302767.57,238489.64,375000.0,375000.0,,,,,
0.857,3056593,-9650.79,29670.37,375000.0,375000.0,302782.33,238505.13,375000.0,375000.0,,,,,
0.858,3056594,-9630.37,29692.92,375000.0,375000.0,302801.43,238529.95,375000.0,375000.0,,,,,
0.859,3056595,-9608.32,29716.31,375000.0,375000.0,302821.26,238561.96,375000.0,375000.0,,,,,
0.860,3056596,-9590.15,29734.61,375000.0,375000.0,302836.12,238593.2,375000.0,375000.0,,,,,
0.861,3056597,-9581.78,29741.74,375000.0,375000.0,302840.7,238613.02,375000.0,375000.0,,,,,
0.862,3056598,-9586.92,29734.2,375000.0,375000.0,302832.71,238613.11,375000.0,375000.0,,,,,
0.863,3056599,-9605.28,29712.9,375000.0,375000.0,302814.12,238591.93,375000.0,375000.0,,,,,
0.864,3056600,-9632.4,29682.98,375000.0,375000.0,302790.42,238555.83,375000.0,375000.0,,,,,
0.865,3056601,-9661.37,29651.91,375000.0,375000.0,302768.25,238516.36,375000.0,375000.0,,,,,
0.866,3056602,-9685.56,29626.55,375000.0,375000.0,302752.66,238485.09,375000.0,375000.0,,,,,
0.867,3056603,-9700.9,29610.84,375000.0,375000.0,302745.32,238468.59,375000.0,375000.0,,,,,
0.868,3056604,-9706.9,29605.07,375000.0,375000.0,302744.52,238466.31,375000.0,375000.0,,,,,
0.869,3056605,-9705.72,29606.85,375000.0,375000.0,302746.82,238472.22,375000.0,375000.0,,,,,
0.870,3056606,-9700.34,29613.26,375000.0,375000.0,302749.41,238479.08,375000.0,375000.0,,,,,
0.871,3056607,-9692.54,29622.62,375000.0,375000.0,302751.76,238482.92,375000.0,375000.0,,,,,
0.872,3056608,-9682.23,29635.11,375000.0,375000.0,302755.76,238484.94,375000.0,375000.0,,,,,
0.873,3056609,-9668.17,29651.77,375000.0,375000.0,302764.34,238490.12,375000.0,375000.0,,,,,
0.874,3056610,-9649.7,29672.73,375000.0,375000.0,302779.29,238503.26,375000.0,375000.0,,,,,
0.875,3056611,-9628.4,29695.67,375000.0,375000.0,302799.5,238525.03,375000.0,375000.0,,,,,
0.876,3056612,-9608.46,29715.81,375000.0,375000.0,302820.74,238550.46,375000.0,375000.0,,,,,
0.877,3056613,-9595.39,29727.33,375000.0,375000.0,302837.01,238570.74,375000.0,375000.0,,,,,
0.878,3056614,-9593.75,29725.9,375000.0,375000.0,302842.92,238577.55,375000.0,375000.0,,,,,
0.879,3056615,-9604.87,29710.81,375000.0,375000.0,302835.95,238567.37,375000.0,375000.0,,,,,
0.880,3056616,-9625.97,29685.62,375000.0,375000.0,302817.54,238543.36,375000.0,375000.0,,,,,
0.881,3056617,-9651.1,29656.95,375000.0,375000.0,302792.48,238513.87,375000.0,375000.0,,,,,
0.882,3056618,-9673.62,29631.8,375000.0,375000.0,302767.03,238488.34,375000.0,375000.0,,,,,
0.883,3056619,-9688.8,29615.0,375000.0,375000.0,302746.64,238472.99,375000.0,375000.0,,,,,
0.884,3056620,-9695.46,29607.68,375000.0,375000.0,302734.35,238468.56,375000.0,375000.0,,,,,
0.885,3056621,-9695.65,29607.79,375000.0,375000.0,302730.52,238471.27,375000.0,375000.0,,,,,
0.886,3056622,-9692.82,29611.95,375000.0,375000.0,302733.62,238476.12,375000.0,375000.0,,,,,
0.887,3056623,-9689.43,29617.81,375000.0,375000.0,302741.69,238480.46,375000.0,375000.0,,,,,
0.888,3056624,-9685.49,29625.32,375000.0,375000.0,302753.4,238485.62,375000.0,375000.0,,,,,
0.889,3056625,-9678.73,29636.44,375000.0,375000.0,302768.27,238495.64,375000.0,375000.0,,,,,
0.890,3056626,-9666.37,29653.34,375000.0,375000.0,302786.01,238514.0,375000.0,375000.0,,,,,
0.891,3056627,-9647.5,29676.24,375000.0,375000.0,302805.56,238540.33,375000.0,375000.0,,,,,
0.892,3056628,-9624.53,29702.08,375000.0,375000.0,302824.51,238569.3,375000.0,375000.0,,,,,
0.893,3056629,-9602.94,29725.05,375000.0,375000.0,302839.38,238592.38,375000.0,375000.0,,,,,
0.894,3056630,-9589.32,29738.61,375000.0,375000.0,302846.7,238601.62,375000.0,375000.0,,,,,
0.895,3056631,-9588.52,29738.26,375000.0,375000.0,302844.39,238593.45,375000.0,375000.0,,,,,
0.896,3056632,-9601.46,29723.47,375000.0,375000.0,302832.6,238570.37,375000.0,375000.0,,,,,
0.897,3056633,-9624.7,29698.09,375000.0,375000.0,302813.76,238539.72,375000.0,375000.0,,,,,
0.898,3056634,-9651.85,29668.69,375000.0,375000.0,302791.68,238510.36,375000.0,375000.0,,,,,
0.899,3056635,-9676.21,29642.1,375000.0,375000.0,302770.27,238489.16,375000.0,375000.0,,,,,
0.900,3056636,-9693.21,29622.98,375000.0,375000.0,302752.59,238479.05,375000.0,375000.0,,,,,
0.901,3056637,-9701.57,29612.81,375000.0,375000.0,302740.49,238479.48,375000.0,375000.0,,,,,
0.902,3056638,-9702.71,29610.44,375000.0,375000.0,302735.03,238488.41,375000.0,375000.0,,,,,
0.903,3056639,-9699.01,29613.77,375000.0,375000.0,302736.93,238504.22,375000.0,375000.0,,,,,
0.904,3056640,-9692.01,29621.37,375000.0,375000.0,302746.81,238526.28,375000.0,375000.0,,,,,
0.905,3056641,-9681.69,29633.19,375000.0,375000.0,302764.68,238553.77,375000.0,375000.0,,,,,
0.906,3056642,-9667.03,29649.93,375000.0,375000.0,302789.09,238583.83,375000.0,375000.0,,,,,
0.907,3056643,-9647.6,29671.58,375000.0,375000.0,302816.51,238610.74,375000.0,375000.0,,,,,
0.908,3056644,-9624.99,29696.09,375000.0,375000.0,302841.62,238627.09,375000.0,375000.0,,,,,
0.909,3056645,-9603.21,29719.11,375000.0,375000.0,302858.64,238626.81,375000.0,375000.0,,,,,
0.910,3056646,-9587.57,29735.09,375000.0,375000.0,302863.29,238608.37,375000.0,375000.0,,,,,
0.911,3056647,-9582.68,29739.36,375000.0,375000.0,302854.5,238576.28,375000.0,375000.0,,,,,
0.912,3056648,-9590.38,29730.12,375000.0,375000.0,302834.8,238539.57,375000.0,375000.0,,,,,
0.913,3056649,-9608.89,29709.34,375000.0,375000.0,302809.32,238507.89,375000.0,375000.0,,,,,
0.914,3056650,-9633.45,29682.09,375000.0,375000.0,302783.53,238487.11,375000.0,375000.0,,,,,
0.915,3056651,-9658.2,29654.63,375000.0,375000.0,302761.09,238476.84,375000.0,375000.0,,,,,
0.916,3056652,-9678.37,29632.15,375000.0,375000.0,302742.83,238471.4,375000.0,375000.0,,,,,
0.917,3056653,-9691.61,29617.33,375000.0,375000.0,302727.37,238463.79,375000.0,375000.0,,,,,
0.918,3056654,-9698.09,29610.16,375000.0,375000.0,302713.13,238450.44,375000.0,375000.0,,,,,
0.919,3056655,-9699.26,29609.08,375000.0,375000.0,302700.32,238434.11,375000.0,375000.0,,,,,
0.920,3056656,-9696.42,29612.5,375000.0,375000.0,302691.87,238423.09,375000.0,375000.0,,,,,
0.921,3056657,-9689.69,29619.99,375000.0,375000.0,302692.4,238426.9,375000.0,375000.0,,,,,
0.922,3056658,-9678.19,29632.17,375000.0,375000.0,302705.66,238450.8,375000.0,375000.0,,,,,
0.923,3056659,-9661.16,29649.74,375000.0,375000.0,302731.79,238491.98,375000.0,375000.0,,,,,
0.924,3056660,-9639.37,29672.02,375000.0,375000.0,302765.96,238539.62,375000.0,375000.0,,,,,
0.925,3056661,-9615.85,29696.06,375000.0,375000.0,302799.32,238579.04,375000.0,375000.0,,,,,
0.926,3056662,-9595.38,29717.0,375000.0,375000.0,302822.16,238597.85,375000.0,375000.0,,,,,
0.927,3056663,-9582.98,29729.55,375000.0,375000.0,302827.77,238591.17,375000.0,375000.0,,,,,
0.928,3056664,-9581.94,29730.05,375000.0,375000.0,302815.29,238563.34,375000.0,375000.0,,,,,
0.929,3056665,-9592.45,29718.02,375000.0,375000.0,302790.03,238525.44,375000.0,375000.0,,,,,
0.930,3056666,-9611.46,29696.51,375000.0,375000.0,302761.18,238490.09,375000.0,375000.0,,,,,
0.931,3056667,-9633.91,29670.95,375000.0,375000.0,302737.87,238466.15,375000.0,375000.0,,,,,
0.932,3056668,-9654.64,29647.16,375000.0,375000.0,302725.66,238455.87,375000.0,375000.0,,,,,
0.933,3056669,-9670.13,29629.4,375000.0,375000.0,302724.79,238455.57,375000.0,375000.0,,,,,
0.934,3056670,-9679.26,29619.33,375000.0,375000.0,302731.27,238459.01,375000.0,375000.0,,,,,
0.935,3056671,-9682.87,29616.24,375000.0,375000.0,302739.61,238461.39,375000.0,375000.0,,,,,
0.936,3056672,-9682.52,29618.37,375000.0,375000.0,302746.07,238461.88,375000.0,375000.0,,,,,
0.937,3056673,-9679.12,29624.34,375000.0,375000.0,302750.43,238463.46,375000.0,375000.0,,,,,
0.938,3056674,-9672.35,29633.9,375000.0,375000.0,302755.66,238470.61,375000.0,375000.0,,,,,
0.939,3056675,-9661.06,29647.7,375000.0,375000.0,302765.71,238486.25,375000.0,375000.0,,,,,
0.940,3056676,-9644.54,29666.06,375000.0,375000.0,302782.79,238509.76,375000.0,375000.0,,,,,
0.941,3056677,-9623.76,29687.74,375000.0,375000.0,302805.54,238536.85,375000.0,375000.0,,,,,
0.942,3056678,-9602.03,29709.35,375000.0,375000.0,302829.08,238561.3,375000.0,375000.0,,,,,
0.943,3056679,-9584.37,29725.93,375000.0,375000.0,302846.86,238577.39,375000.0,375000.0,,,,,
0.944,3056680,-9576.0,29732.64,375000.0,375000.0,302853.29,238581.86,375000.0,375000.0,,,,,
0.945,3056681,-9580.36,29726.74,375000.0,375000.0,302845.92,238574.48,375000.0,375000.0,,,,,
0.946,3056682,-9597.65,29708.82,375000.0,375000.0,302826.15,238557.52,375000.0,375000.0,,,,,
0.947,3056683,-9624.53,29682.85,375000.0,375000.0,302798.4,238534.45,375000.0,375000.0,,,,,
0.948,3056684,-9655.12,29654.78,375000.0,375000.0,302768.35,238508.89,375000.0,375000.0,,,,,
0.949,3056685,-9682.92,29630.46,375000.0,375000.0,302741.1,238484.06,375000.0,375000.0,,,,,
0.950,3056686,-9702.76,29613.74,375000.0,375000.0,302720.12,238462.76,375000.0,375000.0,,,,,
0.951,3056687,-9712.05,29605.72,375000.0,375000.0,302707.2,238447.6,375000.0,375000.0,,,,,
0.952,3056688,-9710.95,29605.2,375000.0,375000.0,302703.01,238440.88,375000.0,375000.0,,,,,
0.953,3056689,-9701.43,29610.14,375000.0,375000.0,302707.68,238444.2,375000.0,375000.0,,,,,
0.954,3056690,-9686.07,29619.02,375000.0,375000.0,302720.98,238457.87,375000.0,375000.0,,,,,
0.955,3056691,-9666.97,29631.58,375000.0,375000.0,302741.99,238480.47,375000.0,375000.0,,,,,
0.956,3056692,-9645.54,29648.31,375000.0,375000.0,302768.52,238508.78,375000.0,375000.0,,,,,
0.957,3056693,-9622.94,29669.2,375000.0,375000.0,302796.94,238538.32,375000.0,375000.0,,,,,
0.958,3056694,-9600.91,29692.5,375000.0,375000.0,302822.6,238564.14,375000.0,375000.0,,,,,
0.959,3056695,-9582.17,29714.35,375000.0,375000.0,302840.9,238581.86,375000.0,375000.0,,,,,
0.960,3056696,-9570.17,29729.65,375000.0,375000.0,302848.57,238588.6,375000.0,375000.0,,,,,
0.961,3056697,-9567.98,29733.88,375000.0,375000.0,302844.69,238583.7,375000.0,375000.0,,,,,
0.962,3056698,-9576.93,29725.12,375000.0,375000.0,302830.86,238568.96,375000.0,375000.0,,,,,
0.963,3056699,-9595.71,29705.07,375000.0,375000.0,302810.71,238548.19,375000.0,375000.0,,,,,
0.964,3056700,-9620.39,29678.69,375000.0,375000.0,302788.6,238526.19,375000.0,375000.0,,,,,
0.965,3056701,-9645.65,29652.42,375000.0,375000.0,302768.45,238507.3,375000.0,375000.0,,,,,
0.966,3056702,-9666.45,29631.88,375000.0,375000.0,302752.76,238494.0,375000.0,375000.0,,,,,
0.967,3056703,-9679.74,29620.07,375000.0,375000.0,302742.39,238486.38,375000.0,375000.0,,,,,
0.968,3056704,-9685.05,29616.88,375000.0,375000.0,302737.02,238482.6,375000.0,375000.0,,,,,
0.969,3056705,-9683.99,29620.04,375000.0,375000.0,302735.92,238480.45,375000.0,375000.0,,,,,
0.970,3056706,-9678.91,29626.85,375000.0,375000.0,302738.72,238479.14,375000.0,375000.0,,,,,
0.971,3056707,-9671.47,29635.77,375000.0,375000.0,302745.67,238480.25,375000.0,375000.0,,,,,
0.972,3056708,-9661.91,29646.89,375000.0,375000.0,302757.34,238487.18,375000.0,375000.0,,,,,
0.973,3056709,-9649.51,29661.19,375000.0,375000.0,302773.81,238502.93,375000.0,375000.0,,,,,
0.974,3056710,-9633.82,29679.0,375000.0,375000.0,302793.82,238527.53,375000.0,375000.0,,,,,
0.975,3056711,-9615.99,29698.64,375000.0,375000.0,302814.31,238556.42,375000.0,375000.0,,,,,
0.976,3056712,-9599.24,29716.21,375000.0,375000.0,302830.82,238581.15,375000.0,375000.0,,,,,
0.977,3056713,-9588.14,29726.66,375000.0,375000.0,302838.73,238592.52,375000.0,375000.0,,,,,
0.978,3056714,-9586.82,29725.88,375000.0,375000.0,302834.95,238584.83,375000.0,375000.0,,,,,
0.979,3056715,-9597.09,29712.56,375000.0,375000.0,302819.29,238559.16,375000.0,375000.0,,,,,
0.980,3056716,-9617.32,29689.07,375000.0,375000.0,302794.97,238523.67,375000.0,375000.0,,,,,
0.981,3056717,-9642.83,29660.68,375000.0,375000.0,302767.74,238490.49,375000.0,375000.0,,,,,
0.982,3056718,-9667.58,29633.61,375000.0,375000.0,302744.0,238470.43,375000.0,375000.0,,,,,
0.983,3056719,-9686.37,29612.81,375000.0,375000.0,302728.7,238468.09,375000.0,375000.0,,,,,
0.984,3056720,-9696.58,29600.49,375000.0,375000.0,302723.84,238479.98,375000.0,375000.0,,,,,
0.985,3056721,-9698.44,29596.2,375000.0,375000.0,302728.32,238496.71,375000.0,375000.0,,,,,
0.986,3056722,-9694.1,29598.0,375000.0,375000.0,302739.11,238508.2,375000.0,375000.0,,,,,
0.987,3056723,-9685.86,29604.25,375000.0,375000.0,302753.03,238509.18,375000.0,375000.0,,,,,
0.988,3056724,-9674.87,29614.59,375000.0,375000.0,302768.1,238501.96,375000.0,375000.0,,,,,
0.989,3056725,-9660.88,29629.84,375000.0,375000.0,302783.86,238494.88,375000.0,375000.0,,,,,
0.990,3056726,-9643.23,29650.68,375000.0,375000.0,302800.39,238497.19,375000.0,375000.0,,,,,
0.991,3056727,-9622.37,29675.99,375000.0,375000.0,302816.85,238513.28,375000.0,375000.0,,,,,
0.992,3056728,-9600.94,29702.07,375000.0,375000.0,302830.6,238539.4,375000.0,375000.0,,,,,
0.993,3056729,-9583.54,29723.18,375000.0,375000.0,302837.58,238564.89,375000.0,375000.0,,,,,
0.994,3056730,-9575.16,29733.48,375000.0,375000.0,302834.09,238577.49,375000.0,375000.0,,,,,
0.995,3056731,-9579.02,29729.51,375000.0,375000.0,302819.0,238569.8,375000.0,375000.0,,,,,
0.996,3056732,-9594.87,29711.85,375000.0,375000.0,302795.07,238543.46,375000.0,375000.0,,,,,
0.997,3056733,-9618.79,29685.17,375000.0,375000.0,302768.42,238508.69,375000.0,375000.0,,,,,
0.998,3056734,-9644.59,29656.57,375000.0,375000.0,302746.18,238479.25,375000.0,375000.0,,,,,
0.999,3056735,-9666.23,29632.89,375000.0,375000.0,302733.3,238465.65,375000.0,375000.0,,,,,
1.000,3056736,-9680.01,29618.35,375000.0,375000.0,302730.31,238470.12,375000.0,375000.0,,,,,
1.001,3056737,-9685.46,29613.54,375000.0,375000.0,302733.29,238486.05,375000.0,375000.0,,,,,
1.002,3056738,-9684.61,29616.2,375000.0,375000.0,302736.26,238502.18,375000.0,375000.0,,,,,
1.003,3056739,-9680.13,29623.17,375000.0,375000.0,302734.87,238509.07,375000.0,375000.0,,,,,
1.004,3056740,-9673.51,29632.34,375000.0,375000.0,302729.3,238504.23,375000.0,375000.0,,,,,
1.005,3056741,-9664.31,29643.62,375000.0,375000.0,302724.71,238493.29,375000.0,375000.0,,,,,
1.006,3056742,-9650.97,29658.28,375000.0,375000.0,302728.75,238486.42,375000.0,375000.0,,,,,
1.007,3056743,-9632.53,29677.27,375000.0,375000.0,302747.15,238492.27,375000.0,375000.0,,,,,
1.008,3056744,-9610.35,29699.47,375000.0,375000.0,302779.89,238512.83,375000.0,375000.0,,,,,
1.009,3056745,-9588.55,29721.02,375000.0,375000.0,302819.82,238541.94,375000.0,375000.0,,,,,
1.010,3056746,-9572.88,29736.34,375000.0,375000.0,302854.97,238568.28,375000.0,375000.0,,,,,
1.011,3056747,-9568.36,29740.32,375000.0,375000.0,302873.5,238581.17,375000.0,375000.0,,,,,
1.012,3056748,-9577.01,29730.73,375000.0,375000.0,302868.9,238575.73,375000.0,375000.0,,,,,
1.013,3056749,-9596.69,29709.42,375000.0,375000.0,302843.01,238554.95,375000.0,375000.0,,,,,
1.014,3056750,-9621.95,29681.86,375000.0,375000.0,302805.18,238527.57,375000.0,375000.0,,,,,
1.015,3056751,-9646.24,29654.91,375000.0,375000.0,302768.09,238503.18,375000.0,375000.0,,,,,
1.016,3056752,-9664.48,29634.26,375000.0,375000.0,302742.24,238487.57,375000.0,375000.0,,,,,
1.017,3056753,-9674.75,29622.46,375000.0,375000.0,302731.89,238480.63,375000.0,375000.0,,,,,
1.018,3056754,-9678.22,29618.71,375000.0,375000.0,302734.29,238477.97,375000.0,375000.0,,,,,
1.019,3056755,-9677.52,29620.33,375000.0,375000.0,302742.44,238474.8,375000.0,375000.0,,,,,
1.020,3056756,-9674.63,29624.84,375000.0,375000.0,302749.56,238469.72,375000.0,375000.0,,,,,
1.021,3056757,-9669.48,29631.68,375000.0,375000.0,302752.95,238466.09,375000.0,375000.0,,,,,
1.022,3056758,-9660.18,29642.26,375000.0,375000.0,302755.11,238470.08,375000.0,375000.0,,,,,
1.023,3056759,-9644.59,29658.58,375000.0,375000.0,302761.63,238486.71,375000.0,375000.0,,,,,
1.024,3056760,-9622.53,29681.04,375000.0,375000.0,302777.19,238516.15,375000.0,375000.0,,,,,
1.025,3056761,-9597.1,29706.83,375000.0,375000.0,302802.0,238552.46,375000.0,375000.0,,,,,
1.026,3056762,-9574.3,29730.04,375000.0,375000.0,302830.51,238585.53,375000.0,375000.0,,,,,
1.027,3056763,-9561.0,29743.55,375000.0,375000.0,302853.42,238605.35,375000.0,375000.0,,,,,
1.028,3056764,-9562.02,29742.0,375000.0,375000.0,302861.71,238606.14,375000.0,375000.0,,,,,
1.029,3056765,-9577.94,29724.28,375000.0,375000.0,302850.8,238588.55,375000.0,375000.0,,,,,
1.030,3056766,-9604.66,29694.4,375000.0,375000.0,302822.72,238558.78,375000.0,375000.0,,,,,
1.031,3056767,-9634.92,29660.03,375000.0,375000.0,302785.22,238525.38,375000.0,375000.0,,,,,
1.032,3056768,-9661.21,29629.61,375000.0,375000.0,302748.53,238495.66,375000.0,375000.0,,,,,
1.033,3056769,-9678.53,29609.17,375000.0,375000.0,302721.29,238473.37,375000.0,375000.0,,,,,
1.034,3056770,-9685.75,29600.53,375000.0,375000.0,302707.71,238458.76,375000.0,375000.0,,,,,
1.035,3056771,-9685.12,29601.57,375000.0,375000.0,302707.07,238450.36,375000.0,375000.0,,,,,
1.036,3056772,-9680.25,29608.3,375000.0,375000.0,302715.41,238447.16,375000.0,375000.0,,,,,
1.037,3056773,-9673.78,29617.41,375000.0,375000.0,302728.33,238449.84,375000.0,375000.0,,,,,
1.038,3056774,-9666.06,29628.04,375000.0,375000.0,302743.1,238460.16,375000.0,375000.0,,,,,
1.039,3056775,-9655.45,29641.59,375000.0,375000.0,302759.24,238479.21,375000.0,375000.0,,,,,
1.040,3056776,-9640.02,29660.0,375000.0,375000.0,302777.4,238505.51,375000.0,375000.0,,,,,
1.041,3056777,-9619.64,29683.39,375000.0,375000.0,302797.5,238534.42,375000.0,375000.0,,,,,
1.042,3056778,-9597.18,29708.62,375000.0,375000.0,302817.35,238559.23,375000.0,375000.0,,,,,
1.043,3056779,-9578.02,29729.65,375000.0,375000.0,302832.76,238573.58,375000.0,375000.0,,,,,
1.044,3056780,-9568.11,29739.84,375000.0,375000.0,302839.11,238573.95,375000.0,375000.0,,,,,
1.045,3056781,-9571.36,29734.9,375000.0,375000.0,302833.55,238561.0,375000.0,375000.0,,,,,
1.046,3056782,-9587.73,29715.14,375000.0,375000.0,302816.69,238539.21,375000.0,375000.0,,,,,
1.047,3056783,-9613.06,29685.69,375000.0,375000.0,302792.77,238514.94,375000.0,375000.0,,,,,
1.048,3056784,-9640.61,29654.53,375000.0,375000.0,302768.19,238493.93,375000.0,375000.0,,,,,
1.049,3056785,-9663.73,29629.39,375000.0,375000.0,302749.05,238479.41,375000.0,375000.0,,,,,
1.050,3056786,-9678.22,29614.8,375000.0,375000.0,302738.9,238471.62,375000.0,375000.0,,,,,
1.051,3056787,-9683.39,29610.96,375000.0,375000.0,302737.7,238468.7,375000.0,375000.0,,,,,
1.052,3056788,-9681.37,29614.71,375000.0,375000.0,302742.51,238468.47,375000.0,375000.0,,,,,
1.053,3056789,-9675.27,29621.98,375000.0,375000.0,302749.5,238470.1,375000.0,375000.0,,,,,
1.054,3056790,-9667.17,29630.31,375000.0,375000.0,302756.08,238474.68,375000.0,375000.0,,,,,
1.055,3056791,-9657.12,29639.96,375000.0,375000.0,302762.21,238484.65,375000.0,375000.0,,,,,
1.056,3056792,-9643.73,29653.16,375000.0,375000.0,302770.11,238502.1,375000.0,375000.0,,,,,
1.057,3056793,-9625.8,29671.81,375000.0,375000.0,302782.55,238526.95,375000.0,375000.0,,,,,
1.058,3056794,-9604.09,29695.24,375000.0,375000.0,302800.66,238555.86,375000.0,375000.0,,,,,
1.059,3056795,-9582.17,29719.21,375000.0,375000.0,302822.33,238582.57,375000.0,375000.0,,,,,
1.060,3056796,-9565.54,29737.09,375000.0,375000.0,302842.31,238599.68,375000.0,375000.0,,,,,
1.061,3056797,-9559.55,29742.51,375000.0,375000.0,302853.93,238601.37,375000.0,375000.0,,,,,
1.062,3056798,-9566.98,29732.44,375000.0,375000.0,302851.87,238585.79,375000.0,375000.0,,,,,
1.063,3056799,-9586.53,29708.79,375000.0,375000.0,302834.6,238556.23,375000.0,375000.0,,,,,
1.064,3056800,-9613.12,29677.95,375000.0,375000.0,302805.39,238520.26,375000.0,375000.0,,,,,
1.065,3056801,-9639.84,29648.19,375000.0,375000.0,302771.29,238487.1,375000.0,375000.0,,,,,
1.066,3056802,-9660.58,29626.44,375000.0,375000.0,302740.55,238464.29,375000.0,375000.0,,,,,
1.067,3056803,-9672.19,29615.79,375000.0,375000.0,302719.67,238455.1,375000.0,375000.0,,,,,
1.068,3056804,-9675.04,29615.13,375000.0,375000.0,302711.44,238457.75,375000.0,375000.0,,,,,
1.069,3056805,-9671.83,29620.69,375000.0,375000.0,302714.72,238467.04,375000.0,375000.0,,,,,
1.070,3056806,-9665.57,29628.72,375000.0,375000.0,302726.06,238477.31,375000.0,375000.0,,,,,
1.071,3056807,-9657.66,29637.61,375000.0,375000.0,302741.92,238485.36,375000.0,375000.0,,,,,
1.072,3056808,-9647.38,29648.36,375000.0,375000.0,302760.4,238491.86,375000.0,375000.0,,,,,
1.073,3056809,-9632.94,29663.18,375000.0,375000.0,302781.34,238500.27,375000.0,375000.0,,,,,
1.074,3056810,-9613.45,29683.16,375000.0,375000.0,302805.0,238514.02,375000.0,375000.0,,,,,
1.075,3056811,-9590.71,29706.34,375000.0,375000.0,302830.03,238533.57,375000.0,375000.0,,,,,
1.076,3056812,-9569.48,29727.56,375000.0,375000.0,302852.41,238554.84,375000.0,375000.0,,,,,
1.077,3056813,-9556.07,29740.19,375000.0,375000.0,302866.01,238570.51,375000.0,375000.0,,,,,
1.078,3056814,-9555.68,29739.05,375000.0,375000.0,302865.02,238573.27,375000.0,375000.0,,,,,
1.079,3056815,-9569.9,29723.0,375000.0,375000.0,302846.91,238559.79,375000.0,375000.0,,,,,
1.080,3056816,-9595.62,29695.77,375000.0,375000.0,302814.47,238532.99,375000.0,375000.0,,,,,
1.081,3056817,-9625.98,29664.66,375000.0,375000.0,302775.5,238501.33,375000.0,375000.0,,,,,
1.082,3056818,-9653.03,29637.55,375000.0,375000.0,302740.18,238475.34,375000.0,375000.0,,,,,
1.083,3056819,-9670.82,29619.94,375000.0,375000.0,302717.13,238463.04,375000.0,375000.0,,,,,
1.084,3056820,-9677.32,29613.19,375000.0,375000.0,302710.26,238466.52,375000.0,375000.0,,,,,
1.085,3056821,-9674.54,29614.97,375000.0,375000.0,302717.75,238481.56,375000.0,375000.0,,,,,
1.086,3056822,-9666.66,29621.33,375000.0,375000.0,302733.81,238500.38,375000.0,375000.0,,,,,
1.087,3056823,-9657.44,29629.26,375000.0,375000.0,302752.06,238515.89,375000.0,375000.0,,,,,
1.088,3056824,-9648.32,29638.31,375000.0,375000.0,302768.71,238525.19,375000.0,375000.0,,,,,
1.089,3056825,-9638.08,29650.33,375000.0,375000.0,302783.73,238530.35,375000.0,375000.0,,,,,
1.090,3056826,-9624.35,29667.56,375000.0,375000.0,302799.54,238536.2,375000.0,375000.0,,,,,
1.091,3056827,-9605.96,29690.28,375000.0,375000.0,302818.02,238546.44,375000.0,375000.0,,,,,
1.092,3056828,-9584.62,29715.36,375000.0,375000.0,302837.95,238560.62,375000.0,375000.0,,,,,
1.093,3056829,-9565.17,29736.68,375000.0,375000.0,302854.37,238573.65,375000.0,375000.0,,,,,
1.094,3056830,-9553.78,29747.41,375000.0,375000.0,302860.69,238578.38,375000.0,375000.0,,,,,
1.095,3056831,-9555.24,29742.92,375000.0,375000.0,302852.21,238569.66,375000.0,375000.0,,,,,
1.096,3056832,-9570.62,29723.14,375000.0,375000.0,302829.35,238547.62,375000.0,375000.0,,,,,
1.097,3056833,-9596.42,29692.86,375000.0,375000.0,302798.29,238518.09,375000.0,375000.0,,,,,
1.098,3056834,-9625.89,29659.96,375000.0,375000.0,302768.66,238489.91,375000.0,375000.0,,,,,
1.099,3056835,-9651.67,29632.39,375000.0,375000.0,302749.25,238470.58,375000.0,375000.0,,,,,
1.100,3056836,-9668.56,29615.3,375000.0,375000.0,302744.02,238462.74,375000.0,375000.0,,,,,
1.101,3056837,-9675.08,29609.68,375000.0,375000.0,302750.63,238463.55,375000.0,375000.0,,,,,
1.102,3056838,-9673.11,29612.95,375000.0,375000.0,302762.35,238467.26,375000.0,375000.0,,,,,
1.103,3056839,-9666.05,29621.18,375000.0,375000.0,302772.18,238469.54,375000.0,375000.0,,,,,
1.104,3056840,-9656.64,29631.42,375000.0,375000.0,302776.98,238470.71,375000.0,375000.0,,,,,
1.105,3056841,-9645.57,29643.04,375000.0,375000.0,302779.18,238476.04,375000.0,375000.0,,,,,
1.106,3056842,-9631.74,29657.36,375000.0,375000.0,302784.94,238492.43,375000.0,375000.0,,,,,
1.107,3056843,-9613.83,29675.85,375000.0,375000.0,302799.98,238523.45,375000.0,375000.0,,,,,
1.108,3056844,-9592.23,29698.09,375000.0,375000.0,302825.26,238565.54,375000.0,375000.0,,,,,
1.109,3056845,-9570.08,29720.7,375000.0,375000.0,302855.2,238607.75,375000.0,375000.0,,,,,
1.110,3056846,-9552.74,29737.94,375000.0,375000.0,302879.6,238635.7,375000.0,375000.0,,,,,
1.111,3056847,-9545.73,29743.97,375000.0,375000.0,302888.37,238637.95,375000.0,375000.0,,,,,
1.112,3056848,-9552.3,29735.46,375000.0,375000.0,302876.65,238611.63,375000.0,375000.0,,,,,
1.113,3056849,-9571.69,29713.46,375000.0,375000.0,302847.42,238564.34,375000.0,375000.0,,,,,
1.114,3056850,-9599.15,29683.28,375000.0,375000.0,302810.39,238511.23,375000.0,375000.0,,,,,
1.115,3056851,-9627.66,29652.62,375000.0,375000.0,302777.46,238468.66,375000.0,375000.0,,,,,
1.116,3056852,-9650.6,29628.6,375000.0,375000.0,302757.38,238447.45,375000.0,375000.0,,,,,
1.117,3056853,-9664.01,29615.28,375000.0,375000.0,302752.32,238449.08,375000.0,375000.0,,,,,
1.118,3056854,-9667.46,29612.68,375000.0,375000.0,302757.98,238466.41,375000.0,375000.0,,,,,
1.119,3056855,-9663.27,29617.77,375000.0,375000.0,302767.1,238488.39,375000.0,375000.0,,,,,
1.120,3056856,-9654.62,29626.7,375000.0,375000.0,302774.08,238505.97,375000.0,375000.0,,,,,
1.121,3056857,-9643.7,29637.0,375000.0,375000.0,302778.15,238516.21,375000.0,375000.0,,,,,
1.122,3056858,-9630.86,29648.66,375000.0,375000.0,302783.22,238522.48,375000.0,375000.0,,,,,
1.123,3056859,-9615.29,29663.33,375000.0,375000.0,302794.77,238531.17,375000.0,375000.0,,,,,
1.124,3056860,-9596.56,29682.4,375000.0,375000.0,302815.51,238546.7,375000.0,375000.0,,,,,
1.125,3056861,-9576.11,29704.97,375000.0,375000.0,302842.55,238568.03,375000.0,375000.0,,,,,
1.126,3056862,-9557.74,29726.98,375000.0,375000.0,302867.73,238588.35,375000.0,375000.0,,,,,
1.127,3056863,-9546.53,29742.33,375000.0,375000.0,302881.09,238598.22,375000.0,375000.0,,,,,
1.128,3056864,-9546.74,29745.31,375000.0,375000.0,302875.64,238590.54,375000.0,375000.0,,,,,
1.129,3056865,-9559.78,29733.38,375000.0,375000.0,302850.91,238564.49,375000.0,375000.0,,,,,
1.130,3056866,-9583.14,29708.72,375000.0,375000.0,302813.47,238526.55,375000.0,375000.0,,,,,
1.131,3056867,-9611.09,29677.76,375000.0,375000.0,302774.11,238487.99,375000.0,375000.0,,,,,
1.132,3056868,-9636.79,29648.69,375000.0,375000.0,302743.33,238460.18,375000.0,375000.0,,,,,
1.133,3056869,-9654.81,29628.34,375000.0,375000.0,302727.39,238450.01,375000.0,375000.0,,,,,
1.134,3056870,-9662.83,29619.74,375000.0,375000.0,302726.78,238457.51,375000.0,375000.0,,,,,
1.135,3056871,-9661.9,29621.62,375000.0,375000.0,302737.48,238476.78,375000.0,375000.0,,,,,
1.136,3056872,-9655.04,29629.92,375000.0,375000.0,302754.0,238499.37,375000.0,375000.0,,,,,
1.137,3056873,-9645.31,29640.4,375000.0,375000.0,302772.23,238518.29,375000.0,375000.0,,,,,
1.138,3056874,-9634.21,29650.91,375000.0,375000.0,302790.63,238530.74,375000.0,375000.0,,,,,
1.139,3056875,-9621.45,29661.98,375000.0,375000.0,302809.33,238538.33,375000.0,375000.0,,,,,
1.140,3056876,-9606.05,29675.61,375000.0,375000.0,302828.18,238544.92,375000.0,375000.0,,,,,
1.141,3056877,-9588.06,29692.91,375000.0,375000.0,302845.13,238553.56,375000.0,375000.0,,,,,
1.142,3056878,-9569.76,29712.23,375000.0,375000.0,302856.31,238564.13,375000.0,375000.0,,,,,
1.143,3056879,-9555.53,29728.84,375000.0,375000.0,302857.75,238573.01,375000.0,375000.0,,,,,
1.144,3056880,-9550.22,29736.71,375000.0,375000.0,302847.74,238574.95,375000.0,375000.0,,,,,
1.145,3056881,-9556.85,29731.4,375000.0,375000.0,302828.36,238566.04,375000.0,375000.0,,,,,
1.146,3056882,-9574.83,29712.62,375000.0,375000.0,302805.16,238546.28,375000.0,375000.0,,,,,
1.147,3056883,-9599.73,29684.92,375000.0,375000.0,302784.85,238520.33,375000.0,375000.0,,,,,
1.148,3056884,-9624.89,29656.07,375000.0,375000.0,302772.43,238495.9,375000.0,375000.0,,,,,
1.149,3056885,-9644.04,29633.76,375000.0,375000.0,302769.0,238480.53,375000.0,375000.0,,,,,
1.150,3056886,-9653.84,29622.44,375000.0,375000.0,302771.75,238478.16,375000.0,375000.0,,,,,
1.151,3056887,-9654.73,29621.79,375000.0,375000.0,302775.89,238487.33,375000.0,375000.0,,,,,
1.152,3056888,-9650.06,29627.69,375000.0,375000.0,302777.57,238501.85,375000.0,375000.0,,,,,
1.153,3056889,-9643.69,29635.12,375000.0,375000.0,302776.24,238513.91,375000.0,375000.0,,,,,
1.154,3056890,-9637.65,29641.21,375000.0,375000.0,302774.98,238518.04,375000.0,375000.0,,,,,
1.155,3056891,-9631.04,29646.9,375000.0,375000.0,302778.82,238514.1,375000.0,375000.0,,,,,
1.156,3056892,-9620.91,29656.06,375000.0,375000.0,302791.76,238507.78,375000.0,375000.0,,,,,
1.157,3056893,-9604.6,29672.58,375000.0,375000.0,302814.18,238507.9,375000.0,375000.0,,,,,
1.158,3056894,-9582.23,29697.15,375000.0,375000.0,302841.87,238521.91,375000.0,375000.0,,,,,
1.159,3056895,-9557.84,29725.58,375000.0,375000.0,302867.39,238551.43,375000.0,375000.0,,,,,
1.160,3056896,-9538.34,29749.73,375000.0,375000.0,302882.87,238590.2,375000.0,375000.0,,,,,
1.161,3056897,-9530.67,29760.96,375000.0,375000.0,302883.16,238625.76,375000.0,375000.0,,,,,
1.162,3056898,-9538.52,29754.17,375000.0,375000.0,302867.76,238644.22,375000.0,375000.0,,,,,
1.163,3056899,-9560.38,29730.48,375000.0,375000.0,302840.8,238636.32,375000.0,375000.0,,,,,
1.164,3056900,-9589.9,29697.03,375000.0,375000.0,302809.3,238601.93,375000.0,375000.0,,,,,
1.165,3056901,-9618.53,29663.92,375000.0,375000.0,302780.59,238550.83,375000.0,375000.0,,,,,
1.166,3056902,-9639.1,29639.85,375000.0,375000.0,302760.06,238499.23,375000.0,375000.0,,,,,
1.167,3056903,-9648.55,29628.72,375000.0,375000.0,302750.21,238463.55,375000.0,375000.0,,,,,
1.168,3056904,-9648.5,29628.78,375000.0,375000.0,302750.92,238454.05,375000.0,375000.0,,,,,
1.169,3056905,-9643.37,29634.74,375000.0,375000.0,302760.6,238471.24,375000.0,375000.0,,,,,
1.170,3056906,-9637.38,29641.41,375000.0,375000.0,302777.31,238506.4,375000.0,375000.0,,,,,
1.171,3056907,-9631.95,29646.89,375000.0,375000.0,302799.25,238545.87,375000.0,375000.0,,,,,
1.172,3056908,-9625.14,29653.41,375000.0,375000.0,302824.44,238576.78,375000.0,375000.0,,,,,
1.173,3056909,-9613.32,29665.39,375000.0,375000.0,302850.09,238591.76,375000.0,375000.0,,,,,
1.174,3056910,-9594.15,29685.9,375000.0,375000.0,302872.28,238590.59,375000.0,375000.0,,,,,
1.175,3056911,-9569.02,29713.67,375000.0,375000.0,302886.45,238578.43,375000.0,375000.0,,,,,
1.176,3056912,-9543.59,29742.34,375000.0,375000.0,302888.69,238562.27,375000.0,375000.0,,,,,
1.177,3056913,-9525.73,29762.74,375000.0,375000.0,302877.37,238547.44,375000.0,375000.0,,,,,
1.178,3056914,-9522.08,29767.04,375000.0,375000.0,302854.26,238535.86,375000.0,375000.0,,,,,
1.179,3056915,-9534.76,29752.55,375000.0,375000.0,302824.45,238526.72,375000.0,375000.0,,,,,
1.180,3056916,-9560.18,29723.33,375000.0,375000.0,302794.87,238518.31,375000.0,375000.0,,,,,
1.181,3056917,-9590.52,29688.5,375000.0,375000.0,302771.94,238509.9,375000.0,375000.0,,,,,
1.182,3056918,-9617.04,29658.32,375000.0,375000.0,302759.34,238502.19,375000.0,375000.0,,,,,
1.183,3056919,-9633.73,29639.9,375000.0,375000.0,302756.83,238496.53,375000.0,375000.0,,,,,
1.184,3056920,-9639.17,29634.81,375000.0,375000.0,302760.88,238493.6,375000.0,375000.0,,,,,
1.185,3056921,-9636.06,29639.63,375000.0,375000.0,302766.61,238492.8,375000.0,375000.0,,,,,
1.186,3056922,-9628.63,29648.93,375000.0,375000.0,302770.44,238492.97,375000.0,375000.0,,,,,
1.187,3056923,-9619.7,29658.84,375000.0,375000.0,302771.93,238493.94,375000.0,375000.0,,,,,
1.188,3056924,-9609.08,29669.14,375000.0,375000.0,302773.96,238497.81,375000.0,375000.0,,,,,
1.189,3056925,-9594.25,29682.8,375000.0,375000.0,302781.2,238508.58,375000.0,375000.0,,,,,
1.190,3056926,-9572.8,29703.14,375000.0,375000.0,302797.32,238529.97,375000.0,375000.0,,,,,
1.191,3056927,-9545.19,29730.58,375000.0,375000.0,302822.56,238562.35,375000.0,375000.0,,,,,
1.192,3056928,-9516.05,29760.84,375000.0,375000.0,302852.8,238600.7,375000.0,375000.0,,,,,
1.193,3056929,-9493.01,29785.88,375000.0,375000.0,302880.67,238635.05,375000.0,375000.0,,,,,
1.194,3056930,-9483.56,29797.21,375000.0,375000.0,302898.32,238653.89,375000.0,375000.0,,,,,
1.195,3056931,-9491.48,29789.95,375000.0,375000.0,302900.66,238649.11,375000.0,375000.0,,,,,
1.196,3056932,-9514.72,29765.45,375000.0,375000.0,302887.36,238620.14,375000.0,375000.0,,,,,
1.197,3056933,-9545.99,29731.02,375000.0,375000.0,302862.98,238574.95,375000.0,375000.0,,,,,
1.198,3056934,-9575.78,29696.94,375000.0,375000.0,302834.96,238527.21,375000.0,375000.0,,,,,
1.199,3056935,-9596.26,29672.18,375000.0,375000.0,302810.67,238490.79,375000.0,375000.0,,,,,
1.200,3056936,-9604.29,29661.02,375000.0,375000.0,302794.87,238474.2,375000.0,375000.0,,,,,
1.201,3056937,-9601.78,29662.16,375000.0,375000.0,302788.72,238477.75,375000.0,375000.0,,,,,
1.202,3056938,-9593.74,29670.68,375000.0,375000.0,302790.6,238494.62,375000.0,375000.0,,,,,
1.203,3056939,-9584.86,29681.41,375000.0,375000.0,302798.02,238515.32,375000.0,375000.0,,,,,
1.204,3056940,-9576.87,29691.96,375000.0,375000.0,302809.35,238532.79,375000.0,375000.0,,,,,
1.205,3056941,-9567.88,29703.56,375000.0,375000.0,302824.49,238545.58,375000.0,375000.0,,,,,
1.206,3056942,-9554.11,29719.54,375000.0,375000.0,302844.04,238557.47,375000.0,375000.0,,,,,
1.207,3056943,-9532.98,29742.22,375000.0,375000.0,302867.72,238573.93,375000.0,375000.0,,,,,
1.208,3056944,-9505.59,29770.33,375000.0,375000.0,302893.1,238597.71,375000.0,375000.0,,,,,
1.209,3056945,-9477.34,29798.31,375000.0,375000.0,302915.59,238626.02,375000.0,375000.0,,,,,
1.210,3056946,-9456.0,29818.24,375000.0,375000.0,302929.83,238651.15,375000.0,375000.0,,,,,
1.211,3056947,-9448.41,29823.28,375000.0,375000.0,302931.91,238664.02,375000.0,375000.0,,,,,
1.212,3056948,-9457.28,29810.97,375000.0,375000.0,302921.13,238658.75,375000.0,375000.0,,,,,
1.213,3056949,-9479.92,29784.6,375000.0,375000.0,302900.42,238635.74,375000.0,375000.0,,,,,
1.214,3056950,-9509.37,29751.91,375000.0,375000.0,302875.16,238601.62,375000.0,375000.0,,,,,
1.215,3056951,-9537.42,29721.83,375000.0,375000.0,302851.0,238566.22,375000.0,375000.0,,,,,
1.216,3056952,-9557.91,29700.9,375000.0,375000.0,302831.88,238538.33,375000.0,375000.0,,,,,
1.217,3056953,-9568.66,29691.17,375000.0,375000.0,302819.25,238522.6,375000.0,375000.0,,,,,
1.218,3056954,-9571.27,29690.48,375000.0,375000.0,302812.66,238519.0,375000.0,375000.0,,,,,
1.219,3056955,-9569.08,29694.76,375000.0,375000.0,302811.28,238524.73,375000.0,375000.0,,,,,
1.220,3056956,-9564.65,29700.94,375000.0,375000.0,302815.13,238537.12,375000.0,375000.0,,,,,
1.221,3056957,-9558.1,29708.76,375000.0,375000.0,302825.32,238555.4,375000.0,375000.0,,,,,
1.222,3056958,-9547.39,29720.55,375000.0,375000.0,302843.05,238580.29,375000.0,375000.0,,,,,
1.223,3056959,-9530.13,29739.12,375000.0,375000.0,302868.0,238611.81,375000.0,375000.0,,,,,
1.224,3056960,-9506.0,29765.05,375000.0,375000.0,302897.29,238646.87,375000.0,375000.0,,,,,
1.225,3056961,-9478.11,29794.98,375000.0,375000.0,302925.64,238678.63,375000.0,375000.0,,,,,
1.226,3056962,-9452.65,29822.06,375000.0,375000.0,302947.01,238698.4,375000.0,375000.0,,,,,
1.227,3056963,-9436.76,29838.4,375000.0,375000.0,302956.86,238699.42,375000.0,375000.0,,,,,
1.228,3056964,-9435.58,29838.44,375000.0,375000.0,302953.86,238680.46,375000.0,375000.0,,,,,
1.229,3056965,-9450.04,29821.46,375000.0,375000.0,302940.2,238647.14,375000.0,375000.0,,,,,
1.230,3056966,-9476.41,29792.04,375000.0,375000.0,302920.36,238609.96,375000.0,375000.0,,,,,
1.231,3056967,-9507.77,29758.24,375000.0,375000.0,302899.07,238579.84,375000.0,375000.0,,,,,
1.232,3056968,-9536.75,29728.32,375000.0,375000.0,302879.57,238563.46,375000.0,375000.0,,,,,
1.233,3056969,-9558.03,29707.77,375000.0,375000.0,302863.16,238560.71,375000.0,375000.0,,,,,
1.234,3056970,-9569.68,29697.83,375000.0,375000.0,302850.03,238565.75,375000.0,375000.0,,,,,
1.235,3056971,-9572.75,29696.3,375000.0,375000.0,302840.72,238570.93,375000.0,375000.0,,,,,
1.236,3056972,-9569.6,29699.77,375000.0,375000.0,302837.11,238571.48,375000.0,375000.0,,,,,
1.237,3056973,-9562.08,29706.06,375000.0,375000.0,302842.17,238568.44,375000.0,375000.0,,,,,
1.238,3056974,-9550.58,29715.37,375000.0,375000.0,302858.29,238568.04,375000.0,375000.0,,,,,
1.239,3056975,-9534.42,29729.63,375000.0,375000.0,302885.25,238578.07,375000.0,375000.0,,,,,
1.240,3056976,-9513.28,29750.44,375000.0,375000.0,302918.92,238602.97,375000.0,375000.0,,,,,
1.241,3056977,-9488.76,29776.83,375000.0,375000.0,302951.72,238640.37,375000.0,375000.0,,,,,
1.242,3056978,-9464.91,29804.28,375000.0,375000.0,302974.8,238681.06,375000.0,375000.0,,,,,
1.243,3056979,-9447.37,29825.79,375000.0,375000.0,302981.25,238712.29,375000.0,375000.0,,,,,
1.244,3056980,-9441.29,29834.48,375000.0,375000.0,302968.73,238723.06,375000.0,375000.0,,,,,
1.245,3056981,-9449.12,29826.66,375000.0,375000.0,302940.38,238708.64,375000.0,375000.0,,,,,
1.246,3056982,-9469.24,29803.67,375000.0,375000.0,302903.62,238672.48,375000.0,375000.0,,,,,
1.247,3056983,-9496.41,29771.63,375000.0,375000.0,302867.32,238624.56,375000.0,375000.0,,,,,
1.248,3056984,-9523.62,29739.1,375000.0,375000.0,302838.7,238577.45,375000.0,375000.0,,,,,
1.249,3056985,-9544.74,29713.72,375000.0,375000.0,302821.27,238541.83,375000.0,375000.0,,,,,
1.250,3056986,-9556.59,29699.56,375000.0,375000.0,302814.55,238523.57,375000.0,375000.0,,,,,
1.251,3056987,-9559.52,29696.29,375000.0,375000.0,302815.46,238523.29,375000.0,375000.0,,,,,
1.252,3056988,-9556.31,29700.5,375000.0,375000.0,302820.59,238537.91,375000.0,375000.0,,,,,
1.253,3056989,-9550.09,29708.26,375000.0,375000.0,302827.99,238563.02,375000.0,375000.0,,,,,
1.254,3056990,-9542.44,29717.52,375000.0,375000.0,302837.96,238594.59,375000.0,375000.0,,,,,
1.255,3056991,-9532.7,29728.97,375000.0,375000.0,302852.38,238629.33,375000.0,375000.0,,,,,
1.256,3056992,-9518.9,29744.92,375000.0,375000.0,302873.14,238664.01,375000.0,375000.0,,,,,
1.257,3056993,-9499.67,29766.95,375000.0,375000.0,302900.52,238694.6,375000.0,375000.0,,,,,
1.258,3056994,-9476.12,29793.64,375000.0,375000.0,302932.26,238716.25,375000.0,375000.0,,,,,
1.259,3056995,-9452.46,29819.92,375000.0,375000.0,302963.68,238724.38,375000.0,375000.0,,,,,
1.260,3056996,-9434.84,29838.49,375000.0,375000.0,302988.89,238716.5,375000.0,375000.0,,,,,
1.261,3056997,-9428.95,29842.85,375000.0,375000.0,303002.53,238693.65,375000.0,375000.0,,,,,
1.262,3056998,-9437.45,29830.4,375000.0,375000.0,303001.32,238660.62,375000.0,375000.0,,,,,
1.263,3056999,-9458.48,29804.01,375000.0,375000.0,302985.09,238624.54,375000.0,375000.0,,,,,
1.264,3057000,-9486.27,29771.19,375000.0,375000.0,302956.83,238592.45,375000.0,375000.0,,,,,
1.265,3057001,-9513.3,29741.17,375000.0,375000.0,302921.83,238568.99,375000.0,375000.0,,,,,
1.266,3057002,-9533.23,29721.31,375000.0,375000.0,302886.32,238555.2,375000.0,375000.0,,,,,
1.267,3057003,-9543.07,29714.52,375000.0,375000.0,302856.06,238549.08,375000.0,375000.0,,,,,
1.268,3057004,-9543.55,29718.9,375000.0,375000.0,302835.23,238547.54,375000.0,375000.0,,,,,
1.269,3057005,-9537.78,29729.65,375000.0,375000.0,302826.04,238548.59,375000.0,375000.0,,,,,
1.270,3057006,-9528.91,29742.14,375000.0,375000.0,302828.88,238552.72,375000.0,375000.0,,,,,
1.271,3057007,-9518.23,29754.37,375000.0,375000.0,302842.79,238562.61,375000.0,375000.0,,,,,
1.272,3057008,-9504.81,29767.58,375000.0,375000.0,302865.92,238581.29,375000.0,375000.0,,,,,
1.273,3057009,-9486.66,29784.71,375000.0,375000.0,302895.64,238609.75,375000.0,375000.0,,,,,
1.274,3057010,-9463.0,29807.68,375000.0,375000.0,302928.38,238645.21,375000.0,375000.0,,,,,
1.275,3057011,-9435.89,29835.11,375000.0,375000.0,302959.56,238681.12,375000.0,375000.0,,,,,
1.276,3057012,-9410.51,29861.77,375000.0,375000.0,302983.92,238709.13,375000.0,375000.0,,,,,
1.277,3057013,-9393.47,29880.37,375000.0,375000.0,302996.56,238722.15,375000.0,375000.0,,,,,
1.278,3057014,-9390.07,29884.7,375000.0,375000.0,302994.49,238717.29,375000.0,375000.0,,,,,
1.279,3057015,-9401.78,29872.57,375000.0,375000.0,302977.99,238697.1,375000.0,375000.0,,,,,
1.280,3057016,-9425.41,29847.11,375000.0,375000.0,302951.14,238668.68,375000.0,375000.0,,,,,
1.281,3057017,-9454.21,29815.61,375000.0,375000.0,302920.91,238640.8,375000.0,375000.0,,,,,
1.282,3057018,-9480.58,29786.54,375000.0,375000.0,302895.08,238620.52,375000.0,375000.0,,,,,
1.283,3057019,-9498.96,29766.28,375000.0,375000.0,302879.63,238610.8,375000.0,375000.0,,,,,
1.284,3057020,-9507.46,29757.12,375000.0,375000.0,302876.89,238610.24,375000.0,375000.0,,,,,
1.285,3057021,-9507.66,29757.35,375000.0,375000.0,302885.24,238614.91,375000.0,375000.0,,,,,
1.286,3057022,-9502.73,29763.31,375000.0,375000.0,302900.52,238621.37,375000.0,375000.0,,,,,
1.287,3057023,-9495.19,29771.96,375000.0,375000.0,302918.35,238628.87,375000.0,375000.0,,,,,
1.288,3057024,-9485.53,29782.51,375000.0,375000.0,302936.18,238639.81,375000.0,375000.0,,,,,
1.289,3057025,-9472.48,29796.33,375000.0,375000.0,302953.87,238657.88,375000.0,375000.0,,,,,
1.290,3057026,-9454.66,29815.22,375000.0,375000.0,302972.58,238684.9,375000.0,375000.0,,,,,
1.291,3057027,-9432.51,29839.1,375000.0,375000.0,302992.71,238718.37,375000.0,375000.0,,,,,
1.292,3057028,-9409.33,29864.69,375000.0,375000.0,303012.23,238750.99,375000.0,375000.0,,,,,
1.293,3057029,-9390.64,29886.06,375000.0,375000.0,303026.63,238773.09,375000.0,375000.0,,,,,
1.294,3057030,-9382.01,29896.78,375000.0,375000.0,303030.75,238776.74,375000.0,375000.0,,,,,
1.295,3057031,-9386.59,29892.74,375000.0,375000.0,303021.62,238759.59,375000.0,375000.0,,,,,
1.296,3057032,-9403.49,29874.09,375000.0,375000.0,303000.7,238726.49,375000.0,375000.0,,,,,
1.297,3057033,-9428.06,29845.31,375000.0,375000.0,302974.07,238687.72,375000.0,375000.0,,,,,
1.298,3057034,-9453.77,29813.42,375000.0,375000.0,302950.15,238654.65,375000.0,375000.0,,,,,
1.299,3057035,-9474.89,29785.2,375000.0,375000.0,302935.99,238634.93,375000.0,375000.0,,,,,
1.300,3057036,-9488.41,29764.97,375000.0,375000.0,302934.05,238629.62,375000.0,375000.0,,,,,
1.301,3057037,-9494.48,29753.86,375000.0,375000.0,302941.21,238633.72,375000.0,375000.0,,,,,
1.302,3057038,-9495.12,29750.75,375000.0,375000.0,302950.77,238639.79,375000.0,375000.0,,,,,
1.303,3057039,-9492.24,29754.15,375000.0,375000.0,302956.31,238642.57,375000.0,375000.0,,,,,
1.304,3057040,-9486.02,29763.69,375000.0,375000.0,302955.5,238642.08,375000.0,375000.0,,,,,
1.305,3057041,-9474.88,29780.3,375000.0,375000.0,302951.41,238643.42,375000.0,375000.0,,,,,
1.306,3057042,-9456.81,29804.95,375000.0,375000.0,302950.8,238653.34,375000.0,375000.0,,,,,
1.307,3057043,-9431.51,29836.7,375000.0,375000.0,302959.88,238675.57,375000.0,375000.0,,,,,
1.308,3057044,-9401.89,29871.48,375000.0,375000.0,302980.18,238707.55,375000.0,375000.0,,,,,
1.309,3057045,-9373.94,29902.41,375000.0,375000.0,303006.65,238740.54,375000.0,375000.0,,,,,
1.310,3057046,-9354.86,29921.93,375000.0,375000.0,303029.47,238763.35,375000.0,375000.0,,,,,
1.311,3057047,-9350.27,29924.65,375000.0,375000.0,303038.6,238767.56,375000.0,375000.0,,,,,
1.312,3057048,-9361.77,29909.74,375000.0,375000.0,303028.89,238751.66,375000.0,375000.0,,,,,
1.313,3057049,-9386.16,29881.44,375000.0,375000.0,303002.86,238721.71,375000.0,375000.0,,,,,
1.314,3057050,-9416.68,29847.45,375000.0,375000.0,302969.75,238688.21,375000.0,375000.0,,,,,
1.315,3057051,-9445.67,29816.01,375000.0,375000.0,302941.08,238660.95,375000.0,375000.0,,,,,
1.316,3057052,-9467.34,29792.94,375000.0,375000.0,302925.29,238644.69,375000.0,375000.0,,,,,
1.317,3057053,-9479.42,29780.2,375000.0,375000.0,302924.0,238638.01,375000.0,375000.0,,,,,
1.318,3057054,-9482.9,29776.32,375000.0,375000.0,302932.19,238635.8,375000.0,375000.0,,,,,
1.319,3057055,-9480.36,29778.5,375000.0,375000.0,302941.75,238633.82,375000.0,375000.0,,,,,
1.320,3057056,-9473.85,29784.79,375000.0,375000.0,302946.61,238632.31,375000.0,375000.0,,,,,
1.321,3057057,-9463.6,29795.36,375000.0,375000.0,302946.36,238636.55,375000.0,375000.0,,,,,
1.322,3057058,-9448.31,29811.92,375000.0,375000.0,302946.35,238653.57,375000.0,375000.0,,,,,
1.323,3057059,-9426.71,29835.84,375000.0,375000.0,302954.25,238687.14,375000.0,375000.0,,,,,
1.324,3057060,-9399.57,29865.94,375000.0,375000.0,302974.92,238733.76,375000.0,375000.0,,,,,
1.325,3057061,-9370.73,29897.61,375000.0,375000.0,303006.54,238782.48,375000.0,375000.0,,,,,
1.326,3057062,-9346.58,29923.63,375000.0,375000.0,303040.41,238818.95,375000.0,375000.0,,,,,
1.327,3057063,-9333.84,29936.78,375000.0,375000.0,303064.42,238831.86,375000.0,375000.0,,,,,
1.328,3057064,-9336.79,29932.85,375000.0,375000.0,303068.81,238818.5,375000.0,375000.0,,,,,
1.329,3057065,-9355.3,29912.61,375000.0,375000.0,303050.83,238786.31,375000.0,375000.0,,,,,
1.330,3057066,-9384.49,29881.79,375000.0,375000.0,303016.27,238749.44,375000.0,375000.0,,,,,
1.331,3057067,-9416.57,29848.87,375000.0,375000.0,302976.72,238722.09,375000.0,375000.0,,,,,
1.332,3057068,-9443.7,29821.83,375000.0,375000.0,302944.3,238711.9,375000.0,375000.0,,,,,
1.333,3057069,-9460.85,29805.41,375000.0,375000.0,302926.52,238716.85,375000.0,375000.0,,,,,
1.334,3057070,-9467.08,29799.97,375000.0,375000.0,302923.78,238727.2,375000.0,375000.0,,,,,
1.335,3057071,-9464.98,29802.51,375000.0,375000.0,302930.64,238731.33,375000.0,375000.0,,,,,
1.336,3057072,-9458.52,29809.09,375000.0,375000.0,302939.86,238722.26,375000.0,375000.0,,,,,
1.337,3057073,-9450.59,29817.23,375000.0,375000.0,302946.74,238701.49,375000.0,375000.0,,,,,
1.338,3057074,-9441.6,29827.15,375000.0,375000.0,302951.45,238678.12,375000.0,375000.0,,,,,
1.339,3057075,-9429.75,29841.0,375000.0,375000.0,302958.13,238663.97,375000.0,375000.0,,,,,
1.340,3057076,-9412.87,29860.82,375000.0,375000.0,302971.49,238667.24,375000.0,375000.0,,,,,
1.341,3057077,-9390.7,29886.22,375000.0,375000.0,302993.05,238688.19,375000.0,375000.0,,,,,
1.342,3057078,-9366.23,29913.28,375000.0,375000.0,303019.18,238718.9,375000.0,375000.0,,,,,
1.343,3057079,-9345.36,29935.38,375000.0,375000.0,303042.16,238747.03,375000.0,375000.0,,,,,
1.344,3057080,-9334.69,29945.61,375000.0,375000.0,303053.67,238761.58,375000.0,375000.0,,,,,
1.345,3057081,-9338.71,29939.82,375000.0,375000.0,303048.82,238757.49,375000.0,375000.0,,,,,
1.346,3057082,-9357.53,29918.54,375000.0,375000.0,303028.52,238737.11,375000.0,375000.0,,,,,
1.347,3057083,-9386.58,29887.02,375000.0,375000.0,302999.07,238708.04,375000.0,375000.0,,,,,
1.348,3057084,-9418.29,29853.25,375000.0,375000.0,302969.14,238678.97,375000.0,375000.0,,,,,
1.349,3057085,-9445.09,29824.83,375000.0,375000.0,302945.92,238655.78,375000.0,375000.0,,,,,
1.350,3057086,-9462.23,29806.38,375000.0,375000.0,302932.43,238639.95,375000.0,375000.0,,,,,
1.351,3057087,-9468.95,29798.46,375000.0,375000.0,302927.31,238629.61,375000.0,375000.0,,,,,
1.352,3057088,-9467.78,29798.6,375000.0,375000.0,302926.89,238622.36,375000.0,375000.0,,,,,
1.353,3057089,-9462.2,29803.53,375000.0,375000.0,302928.23,238617.82,375000.0,375000.0,,,,,
1.354,3057090,-9454.31,29811.44,375000.0,375000.0,302931.25,238618.44,375000.0,375000.0,,,,,
1.355,3057091,-9443.72,29822.8,375000.0,375000.0,302938.67,238628.13,375000.0,375000.0,,,,,
1.356,3057092,-9428.36,29839.51,375000.0,375000.0,302953.89,238649.52,375000.0,375000.0,,,,,
1.357,3057093,-9406.7,29862.62,375000.0,375000.0,302978.0,238681.46,375000.0,375000.0,,,,,
1.358,3057094,-9380.12,29890.29,375000.0,375000.0,303007.7,238718.28,375000.0,375000.0,,,,,
1.359,3057095,-9353.71,29917.04,375000.0,375000.0,303035.62,238751.12,375000.0,375000.0,,,,,
1.360,3057096,-9335.04,29935.2,375000.0,375000.0,303052.88,238771.0,375000.0,375000.0,,,,,
1.361,3057097,-9331.02,29937.96,375000.0,375000.0,303052.95,238772.08,375000.0,375000.0,,,,,
1.362,3057098,-9344.6,29922.58,375000.0,375000.0,303034.71,238753.81,375000.0,375000.0,,,,,
1.363,3057099,-9372.96,29892.1,375000.0,375000.0,303003.29,238721.16,375000.0,375000.0,,,,,
1.364,3057100,-9408.19,29854.58,375000.0,375000.0,302968.08,238682.82,375000.0,375000.0,,,,,
1.365,3057101,-9440.48,29820.07,375000.0,375000.0,302938.93,238648.29,375000.0,375000.0,,,,,
1.366,3057102,-9462.03,29796.69,375000.0,375000.0,302922.27,238624.97,375000.0,375000.0,,,,,
1.367,3057103,-9470.05,29787.69,375000.0,375000.0,302918.95,238616.15,375000.0,375000.0,,,,,
1.368,3057104,-9467.08,29790.89,375000.0,375000.0,302924.85,238620.72,375000.0,375000.0,,,,,
1.369,3057105,-9458.76,29800.69,375000.0,375000.0,302933.76,238634.29,375000.0,375000.0,,,,,
1.370,3057106,-9450.23,29811.57,375000.0,375000.0,302940.96,238651.41,375000.0,375000.0,,,,,
1.371,3057107,-9443.2,29821.05,375000.0,375000.0,302945.7,238667.8,375000.0,375000.0,,,,,
1.372,3057108,-9435.28,29830.68,375000.0,375000.0,302951.32,238681.86,375000.0,375000.0,,,,,
1.373,3057109,-9422.05,29844.41,375000.0,375000.0,302962.85,238694.76,375000.0,375000.0,,,,,
1.374,3057110,-9400.49,29865.32,375000.0,375000.0,302983.58,238709.18,375000.0,375000.0,,,,,
1.375,3057111,-9372.06,29892.61,375000.0,375000.0,303012.2,238727.16,375000.0,375000.0,,,,,
1.376,3057112,-9343.27,29920.62,375000.0,375000.0,303042.28,238748.15,375000.0,375000.0,,,,,
1.377,3057113,-9323.44,29940.51,375000.0,375000.0,303064.36,238768.31,375000.0,375000.0,,,,,
1.378,3057114,-9320.62,29944.17,375000.0,375000.0,303069.9,238781.43,375000.0,375000.0,,,,,
1.379,3057115,-9337.6,29928.06,375000.0,375000.0,303055.11,238781.33,375000.0,375000.0,,,,,
1.380,3057116,-9370.34,29895.31,375000.0,375000.0,303022.86,238764.71,375000.0,375000.0,,,,,
1.381,3057117,-9409.46,29854.74,375000.0,375000.0,302981.77,238733.02,375000.0,375000.0,,,,,
1.382,3057118,-9444.24,29817.27,375000.0,375000.0,302942.76,238692.52,375000.0,375000.0,,,,,
1.383,3057119,-9466.98,29791.55,375000.0,375000.0,302914.91,238652.28,375000.0,375000.0,,,,,
1.384,3057120,-9475.61,29780.94,375000.0,375000.0,302902.29,238621.03,375000.0,375000.0,,,,,
1.385,3057121,-9473.36,29783.11,375000.0,375000.0,302903.43,238604.37,375000.0,375000.0,,,,,
1.386,3057122,-9465.9,29792.51,375000.0,375000.0,302913.22,238603.43,375000.0,375000.0,,,,,
1.387,3057123,-9457.67,29803.91,375000.0,375000.0,302926.2,238615.42,375000.0,375000.0,,,,,
1.388,3057124,-9449.54,29815.2,375000.0,375000.0,302939.31,238635.7,375000.0,375000.0,,,,,
1.389,3057125,-9439.05,29827.74,375000.0,375000.0,302952.78,238659.81,375000.0,375000.0,,,,,
1.390,3057126,-9422.99,29844.4,375000.0,375000.0,302968.73,238684.68,375000.0,375000.0,,,,,
1.391,3057127,-9400.6,29866.34,375000.0,375000.0,302988.5,238708.42,375000.0,375000.0,,,,,
1.392,3057128,-9375.46,29890.8,375000.0,375000.0,303010.43,238729.26,375000.0,375000.0,,,,,
1.393,3057129,-9354.76,29911.18,375000.0,375000.0,303029.53,238744.73,375000.0,375000.0,,,,,
1.394,3057130,-9346.22,29919.7,375000.0,375000.0,303039.29,238751.81,375000.0,375000.0,,,,,
1.395,3057131,-9354.2,29911.28,375000.0,375000.0,303034.83,238748.18,375000.0,375000.0,,,,,
1.396,3057132,-9377.23,29886.5,375000.0,375000.0,303015.62,238733.74,375000.0,375000.0,,,,,
1.397,3057133,-9408.33,29851.93,375000.0,375000.0,302986.2,238711.29,375000.0,375000.0,,,,,
1.398,3057134,-9438.07,29817.6,375000.0,375000.0,302954.45,238685.77,375000.0,375000.0,,,,,
1.399,3057135,-9458.7,29792.71,375000.0,375000.0,302928.35,238662.25,375000.0,375000.0,,,,,
1.400,3057136,-9467.37,29781.89,375000.0,375000.0,302912.81,238643.93,375000.0,375000.0,,,,,
1.401,3057137,-9466.58,29783.86,375000.0,375000.0,302908.33,238631.33,375000.0,375000.0,,,,,
1.402,3057138,-9461.88,29793.08,375000.0,375000.0,302912.07,238623.3,375000.0,375000.0,,,,,
1.403,3057139,-9458.16,29803.43,375000.0,375000.0,302920.4,238619.21,375000.0,375000.0,,,,,
1.404,3057140,-9456.62,29811.72,375000.0,375000.0,302931.44,238620.72,375000.0,375000.0,,,,,
1.405,3057141,-9454.2,29819.1,375000.0,375000.0,302945.91,238631.69,375000.0,375000.0,,,,,
1.406,3057142,-9445.76,29829.68,375000.0,375000.0,302965.71,238655.8,375000.0,375000.0,,,,,
1.407,3057143,-9427.74,29847.12,375000.0,375000.0,302991.3,238693.04,375000.0,375000.0,,,,,
1.408,3057144,-9401.21,29871.31,375000.0,375000.0,303019.56,238737.19,375000.0,375000.0,,,,,
1.409,3057145,-9372.53,29897.15,375000.0,375000.0,303043.69,238776.43,375000.0,375000.0,,,,,
1.410,3057146,-9350.99,29916.2,375000.0,375000.0,303055.72,238797.36,375000.0,375000.0,,,,,
1.411,3057147,-9344.78,29920.58,375000.0,375000.0,303050.32,238791.02,375000.0,375000.0,,,,,
1.412,3057148,-9357.12,29906.87,375000.0,375000.0,303027.9,238757.78,375000.0,375000.0,,,,,
1.413,3057149,-9384.77,29878.06,375000.0,375000.0,302995.1,238708.32,375000.0,375000.0,,,,,
1.414,3057150,-9419.48,29842.37,375000.0,375000.0,302962.04,238659.63,375000.0,375000.0,,,,,
1.415,3057151,-9451.72,29809.58,375000.0,375000.0,302937.72,238627.69,375000.0,375000.0,,,,,
1.416,3057152,-9474.65,29786.81,375000.0,375000.0,302925.91,238620.35,375000.0,375000.0,,,,,
1.417,3057153,-9486.34,29776.01,375000.0,375000.0,302923.81,238634.03,375000.0,375000.0,,,,,
1.418,3057154,-9489.35,29774.19,375000.0,375000.0,302924.35,238656.17,375000.0,375000.0,,,,,
1.419,3057155,-9488.0,29776.37,375000.0,375000.0,302920.82,238672.14,375000.0,375000.0,,,,,
1.420,3057156,-9485.23,29779.04,375000.0,375000.0,302911.32,238673.14,375000.0,375000.0,,,,,
1.421,3057157,-9480.72,29782.43,375000.0,375000.0,302900.39,238660.7,375000.0,375000.0,,,,,
1.422,3057158,-9471.47,29790.02,375000.0,375000.0,302896.69,238645.54,375000.0,375000.0,,,,,
1.423,3057159,-9454.34,29805.7,375000.0,375000.0,302907.96,238641.19,375000.0,375000.0,,,,,
1.424,3057160,-9429.06,29830.36,375000.0,375000.0,302935.8,238656.03,375000.0,375000.0,,,,,
1.425,3057161,-9399.86,29859.82,375000.0,375000.0,302973.5,238687.93,375000.0,375000.0,,,,,
1.426,3057162,-9374.57,29885.65,375000.0,375000.0,303008.07,238724.54,375000.0,375000.0,,,,,
1.427,3057163,-9361.61,29898.6,375000.0,375000.0,303025.97,238749.21,375000.0,375000.0,,,,,
1.428,3057164,-9366.23,29892.83,375000.0,375000.0,303019.38,238749.27,375000.0,375000.0,,,,,
1.429,3057165,-9388.02,29868.89,375000.0,375000.0,302990.02,238722.41,375000.0,375000.0,,,,,
1.430,3057166,-9420.87,29833.65,375000.0,375000.0,302948.37,238677.7,375000.0,375000.0,,,,,
1.431,3057167,-9455.58,29797.41,375000.0,375000.0,302908.68,238630.96,375000.0,375000.0,,,,,
1.432,3057168,-9483.6,29769.4,375000.0,375000.0,302882.44,238597.01,375000.0,375000.0,,,,,
1.433,3057169,-9500.21,29754.27,375000.0,375000.0,302873.53,238582.96,375000.0,375000.0,,,,,
1.434,3057170,-9505.58,29750.98,375000.0,375000.0,302877.56,238586.1,375000.0,375000.0,,,,,
1.435,3057171,-9503.39,29754.69,375000.0,375000.0,302885.47,238596.95,375000.0,375000.0,,,,,
1.436,3057172,-9497.98,29760.31,375000.0,375000.0,302889.27,238605.73,375000.0,375000.0,,,,,
1.437,3057173,-9491.64,29765.58,375000.0,375000.0,302886.67,238608.13,375000.0,375000.0,,,,,
1.438,3057174,-9483.61,29772.19,375000.0,375000.0,302882.23,238607.45,375000.0,375000.0,,,,,
1.439,3057175,-9471.08,29784.11,375000.0,375000.0,302884.36,238611.92,375000.0,375000.0,,,,,
1.440,3057176,-9451.68,29804.45,375000.0,375000.0,302899.99,238628.97,375000.0,375000.0,,,,,
1.441,3057177,-9425.89,29832.51,375000.0,375000.0,302929.94,238660.0,375000.0,375000.0,,,,,
1.442,3057178,-9397.92,29862.9,375000.0,375000.0,302967.51,238698.44,375000.0,375000.0,,,,,
1.443,3057179,-9374.65,29887.24,375000.0,375000.0,303000.96,238732.41,375000.0,375000.0,,,,,
1.444,3057180,-9362.93,29897.67,375000.0,375000.0,303018.83,238750.28,375000.0,375000.0,,,,,
1.445,3057181,-9366.76,29890.26,375000.0,375000.0,303014.98,238746.17,375000.0,375000.0,,,,,
1.446,3057182,-9385.6,29866.71,375000.0,375000.0,302991.16,238722.48,375000.0,375000.0,,,,,
1.447,3057183,-9414.75,29833.48,375000.0,375000.0,302955.8,238688.22,375000.0,375000.0,,,,,
1.448,3057184,-9447.29,29798.91,375000.0,375000.0,302919.91,238654.43,375000.0,375000.0,,,,,
1.449,3057185,-9476.75,29770.0,375000.0,375000.0,302892.35,238629.14,375000.0,375000.0,,,,,
1.450,3057186,-9498.97,29750.24,375000.0,375000.0,302876.93,238614.72,375000.0,375000.0,,,,,
1.451,3057187,-9512.61,29739.6,375000.0,375000.0,302872.32,238608.49,375000.0,375000.0,,,,,
1.452,3057188,-9518.21,29736.24,375000.0,375000.0,302874.55,238606.09,375000.0,375000.0,,,,,
1.453,3057189,-9516.63,29738.66,375000.0,375000.0,302880.24,238605.02,375000.0,375000.0,,,,,
1.454,3057190,-9508.13,29746.88,375000.0,375000.0,302888.58,238606.46,375000.0,375000.0,,,,,
1.455,3057191,-9492.36,29762.13,375000.0,375000.0,302901.2,238614.27,375000.0,375000.0,,,,,
1.456,3057192,-9469.55,29785.06,375000.0,375000.0,302920.01,238631.92,375000.0,375000.0,,,,,
1.457,3057193,-9441.77,29813.94,375000.0,375000.0,302944.76,238659.33,375000.0,375000.0,,,,,
1.458,3057194,-9413.47,29843.93,375000.0,375000.0,302971.66,238691.54,375000.0,375000.0,,,,,
1.459,3057195,-9390.69,29868.15,375000.0,375000.0,302994.18,238720.18,375000.0,375000.0,,,,,
1.460,3057196,-9379.1,29880.16,375000.0,375000.0,303005.65,238736.76,375000.0,375000.0,,,,,
1.461,3057197,-9381.78,29876.63,375000.0,375000.0,303002.18,238736.41,375000.0,375000.0,,,,,
1.462,3057198,-9397.91,29858.75,375000.0,375000.0,302984.46,238719.76,375000.0,375000.0,,,,,
1.463,3057199,-9423.03,29831.77,375000.0,375000.0,302957.54,238692.43,375000.0,375000.0,,,,,
1.464,3057200,-9450.77,29802.78,375000.0,375000.0,302928.66,238662.33,375000.0,375000.0,,,,,
1.465,3057201,-9475.3,29777.92,375000.0,375000.0,302904.32,238636.4,375000.0,375000.0,,,,,
1.466,3057202,-9493.22,29760.39,375000.0,375000.0,302888.16,238618.27,375000.0,375000.0,,,,,
1.467,3057203,-9504.06,29750.15,375000.0,375000.0,302880.35,238608.05,375000.0,375000.0,,,,,
1.468,3057204,-9509.28,29745.28,375000.0,375000.0,302878.77,238603.72,375000.0,375000.0,,,,,
1.469,3057205,-9510.52,29744.08,375000.0,375000.0,302881.04,238603.41,375000.0,375000.0,,,,,
1.470,3057206,-9508.1,29746.52,375000.0,375000.0,302886.09,238606.85,375000.0,375000.0,,,,,
1.471,3057207,-9500.69,29754.33,375000.0,375000.0,302894.55,238615.48,375000.0,375000.0,,,,,
1.472,3057208,-9486.49,29769.55,375000.0,375000.0,302907.79,238631.02,375000.0,375000.0,,,,,
1.473,3057209,-9465.0,29792.5,375000.0,375000.0,302926.21,238653.54,375000.0,375000.0,,,,,
1.474,3057210,-9438.53,29820.34,375000.0,375000.0,302947.96,238680.22,375000.0,375000.0,,,,,
1.475,3057211,-9412.32,29847.26,375000.0,375000.0,302968.85,238705.47,375000.0,375000.0,,,,,
1.476,3057212,-9393.03,29866.24,375000.0,375000.0,302983.58,238722.7,375000.0,375000.0,,,,,
1.477,3057213,-9386.27,29871.81,375000.0,375000.0,302987.84,238726.71,375000.0,375000.0,,,,,
1.478,3057214,-9394.23,29862.28,375000.0,375000.0,302980.12,238715.89,375000.0,375000.0,,,,,
1.479,3057215,-9414.76,29840.45,375000.0,375000.0,302962.49,238692.94,375000.0,375000.0,,,,,
1.480,3057216,-9442.18,29812.37,375000.0,375000.0,302939.73,238663.84,375000.0,375000.0,,,,,
1.481,3057217,-9469.71,29784.83,375000.0,375000.0,302917.44,238635.56,375000.0,375000.0,,,,,
1.482,3057218,-9492.0,29762.75,375000.0,375000.0,302899.84,238613.48,375000.0,375000.0,,,,,
1.483,3057219,-9506.92,29747.75,375000.0,375000.0,302888.45,238599.69,375000.0,375000.0,,,,,
1.484,3057220,-9515.42,29738.55,375000.0,375000.0,302882.11,238592.97,375000.0,375000.0,,,,,
1.485,3057221,-9519.98,29732.76,375000.0,375000.0,302878.37,238590.35,375000.0,375000.0,,,,,
1.486,3057222,-9522.43,29729.06,375000.0,375000.0,302875.39,238589.46,375000.0,375000.0,,,,,
1.487,3057223,-9522.42,29728.5,375000.0,375000.0,302873.38,238590.34,375000.0,375000.0,,,,,
1.488,3057224,-9517.51,29734.08,375000.0,375000.0,302874.77,238595.7,375000.0,375000.0,,,,,
1.489,3057225,-9504.76,29748.89,375000.0,375000.0,302882.86,238609.33,375000.0,375000.0,,,,,
1.490,3057226,-9483.04,29773.67,375000.0,375000.0,302899.7,238633.36,375000.0,375000.0,,,,,
1.491,3057227,-9454.75,29805.23,375000.0,375000.0,302924.19,238665.75,375000.0,375000.0,,,,,
1.492,3057228,-9425.8,29836.69,375000.0,375000.0,302951.52,238699.65,375000.0,375000.0,,,,,
1.493,3057229,-9403.85,29859.57,375000.0,375000.0,302974.45,238725.16,375000.0,375000.0,,,,,
1.494,3057230,-9395.41,29866.94,375000.0,375000.0,302985.9,238733.2,375000.0,375000.0,,,,,
1.495,3057231,-9403.14,29856.22,375000.0,375000.0,302981.81,238719.59,375000.0,375000.0,,,,,
1.496,3057232,-9424.81,29830.28,375000.0,375000.0,302962.89,238687.6,375000.0,375000.0,,,,,
1.497,3057233,-9454.23,29796.28,375000.0,375000.0,302934.4,238647.25,375000.0,375000.0,,,,,
1.498,3057234,-9483.76,29762.89,375000.0,375000.0,302904.09,238611.7,375000.0,375000.0,,,,,
1.499,3057235,-9507.27,29737.12,375000.0,375000.0,302879.18,238591.93,375000.0,375000.0,,,,,
1.500,3057236,-9521.98,29722.2,375000.0,375000.0,302863.89,238592.49,375000.0,375000.0,,,,,
1.501,3057237,-9528.53,29717.37,375000.0,375000.0,302858.54,238610.03,375000.0,375000.0,,,,,
1.502,3057238,-9529.49,29719.55,375000.0,375000.0,302860.68,238635.46,375000.0,375000.0,,,,,
1.503,3057239,-9527.06,29725.71,375000.0,375000.0,302867.25,238658.54,375000.0,375000.0,,,,,
1.504,3057240,-9521.54,29734.77,375000.0,375000.0,302876.64,238672.54,375000.0,375000.0,,,,,
1.505,3057241,-9511.28,29747.83,375000.0,375000.0,302889.43,238676.67,375000.0,375000.0,,,,,
1.506,3057242,-9494.22,29766.78,375000.0,375000.0,302907.28,238675.18,375000.0,375000.0,,,,,
1.507,3057243,-9470.0,29792.05,375000.0,375000.0,302930.9,238673.9,375000.0,375000.0,,,,,
1.508,3057244,-9441.56,29820.96,375000.0,375000.0,302958.19,238676.24,375000.0,375000.0,,,,,
1.509,3057245,-9414.92,29847.63,375000.0,375000.0,302983.96,238681.15,375000.0,375000.0,,,,,
1.510,3057246,-9397.36,29864.82,375000.0,375000.0,303001.45,238683.89,375000.0,375000.0,,,,,
1.511,3057247,-9394.47,29866.84,375000.0,375000.0,303005.11,238679.24,375000.0,375000.0,,,,,
1.512,3057248,-9407.72,29852.16,375000.0,375000.0,302993.12,238665.02,375000.0,375000.0,,,,,
1.513,3057249,-9433.64,29824.31,375000.0,375000.0,302968.22,238643.75,375000.0,375000.0,,,,,
1.514,3057250,-9465.14,29790.62,375000.0,375000.0,302936.59,238621.46,375000.0,375000.0,,,,,
1.515,3057251,-9494.24,29759.41,375000.0,375000.0,302905.15,238604.28,375000.0,375000.0,,,,,
1.516,3057252,-9515.1,29736.86,375000.0,375000.0,302878.93,238595.09,375000.0,375000.0,,,,,
1.517,3057253,-9525.65,29725.2,375000.0,375000.0,302859.96,238592.16,375000.0,375000.0,,,,,
1.518,3057254,-9527.37,29722.96,375000.0,375000.0,302847.96,238590.97,375000.0,375000.0,,,,,
1.519,3057255,-9523.43,29726.91,375000.0,375000.0,302842.37,238588.01,375000.0,375000.0,,,,,
1.520,3057256,-9516.33,29734.57,375000.0,375000.0,302844.15,238584.19,375000.0,375000.0,,,,,
1.521,3057257,-9506.39,29745.7,375000.0,375000.0,302855.93,238585.54,375000.0,375000.0,,,,,
1.522,3057258,-9492.07,29762.02,375000.0,375000.0,302880.14,238600.27,375000.0,375000.0,,,,,
1.523,3057259,-9471.68,29785.23,375000.0,375000.0,302916.28,238633.45,375000.0,375000.0,,,,,
1.524,3057260,-9445.67,29814.63,375000.0,375000.0,302958.84,238682.42,375000.0,375000.0,,,,,
1.525,3057261,-9417.9,29845.74,375000.0,375000.0,302997.75,238735.59,375000.0,375000.0,,,,,
1.526,3057262,-9395.03,29871.07,375000.0,375000.0,303021.49,238776.1,375000.0,375000.0,,,,,
1.527,3057263,-9384.22,29882.7,375000.0,375000.0,303021.84,238788.79,375000.0,375000.0,,,,,
1.528,3057264,-9390.0,29875.72,375000.0,375000.0,302997.75,238767.21,375000.0,375000.0,,,,,
1.529,3057265,-9412.13,29850.57,375000.0,375000.0,302956.34,238717.09,375000.0,375000.0,,,,,
1.530,3057266,-9445.35,29813.22,375000.0,375000.0,302910.18,238654.23,375000.0,375000.0,,,,,
1.531,3057267,-9481.43,29772.95,375000.0,375000.0,302872.1,238597.76,375000.0,375000.0,,,,,
1.532,3057268,-9512.34,29738.79,375000.0,375000.0,302849.88,238562.06,375000.0,375000.0,,,,,
1.533,3057269,-9533.11,29716.34,375000.0,375000.0,302843.66,238551.28,375000.0,375000.0,,,,,
1.534,3057270,-9542.97,29706.57,375000.0,375000.0,302847.15,238559.08,375000.0,375000.0,,,,,
1.535,3057271,-9544.33,29706.79,375000.0,375000.0,302852.03,238573.51,375000.0,375000.0,,,,,
1.536,3057272,-9540.43,29713.23,375000.0,375000.0,302853.0,238584.13,375000.0,375000.0,,,,,
1.537,3057273,-9532.99,29723.55,375000.0,375000.0,302850.79,238587.53,375000.0,375000.0,,,,,
1.538,3057274,-9521.35,29737.87,375000.0,375000.0,302851.39,238588.38,375000.0,375000.0,,,,,
1.539,3057275,-9503.53,29757.77,375000.0,375000.0,302862.04,238595.6,375000.0,375000.0,,,,,
1.540,3057276,-9478.52,29784.01,375000.0,375000.0,302886.23,238616.06,375000.0,375000.0,,,,,
1.541,3057277,-9448.42,29814.37,375000.0,375000.0,302920.45,238649.27,375000.0,375000.0,,,,,
1.542,3057278,-9418.97,29843.14,375000.0,375000.0,302954.81,238686.28,375000.0,375000.0,,,,,
1.543,3057279,-9397.89,29862.78,375000.0,375000.0,302977.17,238713.29,375000.0,375000.0,,,,,
1.544,3057280,-9391.78,29866.91,375000.0,375000.0,302978.82,238718.24,375000.0,375000.0,,,,,
1.545,3057281,-9403.11,29853.36,375000.0,375000.0,302958.75,238696.8,375000.0,375000.0,,,,,
1.546,3057282,-9428.79,29825.4,375000.0,375000.0,302924.21,238654.79,375000.0,375000.0,,,,,
1.547,3057283,-9461.39,29790.59,375000.0,375000.0,302887.42,238605.67,375000.0,375000.0,,,,,
1.548,3057284,-9492.14,29757.76,375000.0,375000.0,302860.0,238564.58,375000.0,375000.0,,,,,
1.549,3057285,-9514.49,29733.61,375000.0,375000.0,302848.05,238541.93,375000.0,375000.0,,,,,
1.550,3057286,-9526.18,29720.67,375000.0,375000.0,302850.22,238539.69,375000.0,375000.0,,,,,
1.551,3057287,-9529.12,29717.42,375000.0,375000.0,302859.67,238551.95,375000.0,375000.0,,,,,
1.552,3057288,-9527.04,29720.46,375000.0,375000.0,302868.41,238569.12,375000.0,375000.0,,,,,
1.553,3057289,-9522.63,29727.15,375000.0,375000.0,302871.87,238583.3,375000.0,375000.0,,,,,
1.554,3057290,-9515.73,29737.31,375000.0,375000.0,302871.09,238591.99,375000.0,375000.0,,,,,
1.555,3057291,-9503.64,29752.88,375000.0,375000.0,302871.64,238598.4,375000.0,375000.0,,,,,
1.556,3057292,-9483.46,29775.86,375000.0,375000.0,302879.95,238608.57,375000.0,375000.0,,,,,
1.557,3057293,-9455.01,29805.76,375000.0,375000.0,302899.26,238626.95,375000.0,375000.0,,,,,
1.558,3057294,-9422.49,29838.24,375000.0,375000.0,302927.21,238653.12,375000.0,375000.0,,,,,
1.559,3057295,-9393.79,29865.8,375000.0,375000.0,302956.45,238681.25,375000.0,375000.0,,,,,
1.560,3057296,-9377.55,29880.56,375000.0,375000.0,302977.75,238702.51,375000.0,375000.0,,,,,
1.561,3057297,-9379.29,29877.62,375000.0,375000.0,302983.98,238709.17,375000.0,375000.0,,,,,
1.562,3057298,-9398.77,29857.4,375000.0,375000.0,302973.01,238698.15,375000.0,375000.0,,,,,
1.563,3057299,-9429.83,29825.63,375000.0,375000.0,302948.28,238672.45,375000.0,375000.0,,,,,
1.564,3057300,-9462.95,29791.07,375000.0,375000.0,302916.95,238639.65,375000.0,375000.0,,,,,
1.565,3057301,-9489.26,29762.0,375000.0,375000.0,302886.8,238608.66,375000.0,375000.0,,,,,
1.566,3057302,-9504.02,29743.19,375000.0,375000.0,302863.46,238586.19,375000.0,375000.0,,,,,
1.567,3057303,-9507.8,29734.93,375000.0,375000.0,302849.19,238574.67,375000.0,375000.0,,,,,
1.568,3057304,-9504.97,29734.22,375000.0,375000.0,302843.43,238572.53,375000.0,375000.0,,,,,
1.569,3057305,-9500.48,29737.45,375000.0,375000.0,302844.39,238576.27,375000.0,375000.0,,,,,
1.570,3057306,-9496.77,29742.85,375000.0,375000.0,302850.74,238583.07,375000.0,375000.0,,,,,
1.571,3057307,-9492.46,29751.44,375000.0,375000.0,302862.25,238592.5,375000.0,375000.0,,,,,
1.572,3057308,-9483.6,29765.94,375000.0,375000.0,302879.32,238606.36,375000.0,375000.0,,,,,
1.573,3057309,-9466.62,29788.28,375000.0,375000.0,302901.77,238626.88,375000.0,375000.0,,,,,
1.574,3057310,-9441.29,29817.32,375000.0,375000.0,302927.65,238654.24,375000.0,375000.0,,,,,
1.575,3057311,-9412.07,29848.04,375000.0,375000.0,302953.01,238685.0,375000.0,375000.0,,,,,
1.576,3057312,-9386.79,29872.9,375000.0,375000.0,302972.61,238712.38,375000.0,375000.0,,,,,
1.577,3057313,-9373.52,29884.68,375000.0,375000.0,302981.54,238728.47,375000.0,375000.0,,,,,
1.578,3057314,-9377.0,29879.59,375000.0,375000.0,302976.84,238727.41,375000.0,375000.0,,,,,
1.579,3057315,-9396.53,29858.87,375000.0,375000.0,302958.69,238708.15,375000.0,375000.0,,,,,
1.580,3057316,-9426.33,29828.4,375000.0,375000.0,302930.43,238675.29,375000.0,375000.0,,,,,
1.581,3057317,-9458.09,29796.19,375000.0,375000.0,302897.71,238637.57,375000.0,375000.0,,,,,
1.582,3057318,-9484.37,29769.41,375000.0,375000.0,302866.98,238604.65,375000.0,375000.0,,,,,
1.583,3057319,-9501.23,29751.99,375000.0,375000.0,302843.88,238583.6,375000.0,375000.0,,,,,
1.584,3057320,-9508.77,29744.17,375000.0,375000.0,302832.03,238576.68,375000.0,375000.0,,,,,
1.585,3057321,-9509.7,29743.77,375000.0,375000.0,302832.55,238581.41,375000.0,375000.0,,,,,
1.586,3057322,-9506.86,29748.37,375000.0,375000.0,302844.18,238592.53,375000.0,375000.0,,,,,
1.587,3057323,-9501.23,29757.08,375000.0,375000.0,302863.99,238605.01,375000.0,375000.0,,,,,
1.588,3057324,-9491.51,29770.9,375000.0,375000.0,302888.21,238616.19,375000.0,375000.0,,,,,
1.589,3057325,-9475.4,29791.44,375000.0,375000.0,302912.97,238626.26,375000.0,375000.0,,,,,
1.590,3057326,-9451.92,29818.89,375000.0,375000.0,302934.8,238636.82,375000.0,375000.0,,,,,
1.591,3057327,-9423.12,29850.42,375000.0,375000.0,302950.84,238648.69,375000.0,375000.0,,,,,
1.592,3057328,-9394.37,29880.04,375000.0,375000.0,302958.98,238660.26,375000.0,375000.0,,,,,
1.593,3057329,-9372.81,29900.3,375000.0,375000.0,302958.08,238667.57,375000.0,375000.0,,,,,
1.594,3057330,-9364.66,29905.0,375000.0,375000.0,302948.18,238666.13,375000.0,375000.0,,,,,
1.595,3057331,-9372.72,29891.82,375000.0,375000.0,302930.74,238653.53,375000.0,375000.0,,,,,
1.596,3057332,-9395.27,29863.44,375000.0,375000.0,302908.66,238631.25,375000.0,375000.0,,,,,
1.597,3057333,-9426.78,29826.65,375000.0,375000.0,302885.75,238604.55,375000.0,375000.0,,,,,
1.598,3057334,-9460.1,29789.85,375000.0,375000.0,302865.86,238580.38,375000.0,375000.0,,,,,
1.599,3057335,-9489.03,29760.09,375000.0,375000.0,302851.8,238564.39,375000.0,375000.0,,,,,
1.600,3057336,-9510.02,29740.98,375000.0,375000.0,302844.59,238558.61,375000.0,375000.0,,,,,
1.601,3057337,-9522.42,29732.38,375000.0,375000.0,302843.49,238561.25,375000.0,375000.0,,,,,
1.602,3057338,-9527.37,29731.8,375000.0,375000.0,302846.8,238568.55,375000.0,375000.0,,,,,
1.603,3057339,-9526.18,29736.53,375000.0,375000.0,302853.08,238577.74,375000.0,375000.0,,,,,
1.604,3057340,-9519.19,29745.47,375000.0,375000.0,302862.23,238589.09,375000.0,375000.0,,,,,
1.605,3057341,-9505.84,29759.33,375000.0,375000.0,302875.55,238605.83,375000.0,375000.0,,,,,
1.606,3057342,-9485.82,29779.42,375000.0,375000.0,302894.74,238631.72,375000.0,375000.0,,,,,
1.607,3057343,-9460.52,29805.56,375000.0,375000.0,302920.16,238667.53,375000.0,375000.0,,,,,
1.608,3057344,-9433.97,29834.55,375000.0,375000.0,302949.27,238708.55,375000.0,375000.0,,,,,
1.609,3057345,-9412.31,29860.17,375000.0,375000.0,302976.37,238744.85,375000.0,375000.0,,,,,
1.610,3057346,-9401.88,29875.01,375000.0,375000.0,302993.92,238764.54,375000.0,375000.0,,,,,
1.611,3057347,-9406.81,29873.45,375000.0,375000.0,302995.29,238758.63,375000.0,375000.0,,,,,
1.612,3057348,-9427.07,29854.26,375000.0,375000.0,302977.6,238725.37,375000.0,375000.0,,,,,
1.613,3057349,-9458.11,29821.58,375000.0,375000.0,302943.4,238671.55,375000.0,375000.0,,,,,
1.614,3057350,-9492.42,29783.55,375000.0,375000.0,302900.17,238610.27,375000.0,375000.0,,,,,
1.615,3057351,-9522.27,29749.28,375000.0,375000.0,302857.8,238556.07,375000.0,375000.0,,,,,
1.616,3057352,-9542.48,29725.41,375000.0,375000.0,302825.09,238519.63,375000.0,375000.0,,,,,
1.617,3057353,-9551.95,29714.06,375000.0,375000.0,302806.8,238504.56,375000.0,375000.0,,,,,
