Cygnus version: 0.27.0
Operative system: Windows
Record datetime: 2023-05-26 13:01:03.639273
Device ID: STEEG_DG081015
Device verison: 
Device bandwidth: DC to 131 Hz
Device sampling rate: 1000 samples/second
Data type / unit: EEG / micro-volt (uV)
Bandpass filter: None
Notch filter: None
Timestamp,Serial Number,Fp1,Fp2,T7,T8,O1,O2,Fz,Pz,Event Id,Event Date,Event Duration,Software Marker,Software Marker Name
0.000,2890868,-11707.84,28652.25,375000.0,375000.0,300976.43,237297.92,375000.0,375000.0,,,,,
0.001,2890869,-11706.04,28656.41,375000.0,375000.0,301007.56,237320.43,375000.0,375000.0,,,,,
0.002,2890870,-11705.23,28658.87,375000.0,375000.0,301027.36,237335.44,375000.0,375000.0,,,,,
0.003,2890871,-11706.2,28658.44,375000.0,375000.0,301030.23,237338.91,375000.0,375000.0,,,,,
0.004,2890872,-11709.31,28654.74,375000.0,375000.0,301019.0,237332.0,375000.0,375000.0,,,,,
0.005,2890873,-11714.39,28648.35,375000.0,375000.0,301003.43,237320.12,375000.0,375000.0,,,,,
0.006,2890874,-11720.74,28640.57,375000.0,375000.0,300994.98,237309.93,375000.0,375000.0,,,,,
0.007,2890875,-11727.26,28633.07,375000.0,375000.0,301000.98,237306.03,375000.0,375000.0,,,,,
0.008,2890876,-11732.72,28627.41,375000.0,375000.0,301020.79,237308.91,375000.0,375000.0,,,,,
0.009,2890877,-11736.1,28624.54,375000.0,375000.0,301046.19,237315.27,375000.0,375000.0,,,,,
0.010,2890878,-11736.9,28624.6,375000.0,375000.0,301065.47,237320.25,375000.0,375000.0,,,,,
0.011,2890879,-11735.25,28626.99,375000.0,375000.0,301069.24,237320.26,375000.0,375000.0,,,,,
0.012,2890880,-11731.78,28630.55,375000.0,375000.0,301054.97,237314.77,375000.0,375000.0,,,,,
0.013,2890881,-11727.41,28634.11,375000.0,375000.0,301028.06,237306.33,375000.0,375000.0,,,,,
0.014,2890882,-11722.96,28636.78,375000.0,375000.0,300999.23,237298.82,375000.0,375000.0,,,,,
0.015,2890883,-11718.98,28638.33,375000.0,375000.0,300979.51,237295.35,375000.0,375000.0,,,,,
0.016,2890884,-11715.68,28639.06,375000.0,375000.0,300975.42,237296.71,375000.0,375000.0,,,,,
0.017,2890885,-11713.05,28639.64,375000.0,375000.0,300986.54,237301.43,375000.0,375000.0,,,,,
0.018,2890886,-11711.07,28640.7,375000.0,375000.0,301006.27,237306.87,375000.0,375000.0,,,,,
0.019,2890887,-11709.88,28642.44,375000.0,375000.0,301025.11,237310.81,375000.0,375000.0,,,,,
0.020,2890888,-11709.79,28644.5,375000.0,375000.0,301034.8,237312.31,375000.0,375000.0,,,,,
0.021,2890889,-11711.15,28646.0,375000.0,375000.0,301031.33,237311.67,375000.0,375000.0,,,,,
0.022,2890890,-11714.08,28645.96,375000.0,375000.0,301015.9,237309.63,375000.0,375000.0,,,,,
0.023,2890891,-11718.32,28643.67,375000.0,375000.0,300993.67,237306.69,375000.0,375000.0,,,,,
0.024,2890892,-11723.22,28639.17,375000.0,375000.0,300971.48,237303.04,375000.0,375000.0,,,,,
0.025,2890893,-11727.8,28633.3,375000.0,375000.0,300955.34,237299.08,375000.0,375000.0,,,,,
0.026,2890894,-11731.06,28627.59,375000.0,375000.0,300948.89,237296.08,375000.0,375000.0,,,,,
0.027,2890895,-11732.24,28623.74,375000.0,375000.0,300952.82,237296.15,375000.0,375000.0,,,,,
0.028,2890896,-11731.0,28623.09,375000.0,375000.0,300965.27,237301.27,375000.0,375000.0,,,,,
0.029,2890897,-11727.53,28626.13,375000.0,375000.0,300982.68,237311.81,375000.0,375000.0,,,,,
0.030,2890898,-11722.45,28632.28,375000.0,375000.0,301000.84,237325.55,375000.0,375000.0,,,,,
0.031,2890899,-11716.71,28640.11,375000.0,375000.0,301015.93,237337.97,375000.0,375000.0,,,,,
0.032,2890900,-11711.33,28647.78,375000.0,375000.0,301025.4,237344.12,375000.0,375000.0,,,,,
0.033,2890901,-11707.28,28653.66,375000.0,375000.0,301028.51,237341.12,375000.0,375000.0,,,,,
0.034,2890902,-11705.23,28656.74,375000.0,375000.0,301026.37,237330.07,375000.0,375000.0,,,,,
0.035,2890903,-11705.42,28656.92,375000.0,375000.0,301021.28,237315.98,375000.0,375000.0,,,,,
0.036,2890904,-11707.69,28654.83,375000.0,375000.0,301015.68,237305.63,375000.0,375000.0,,,,,
0.037,2890905,-11711.46,28651.48,375000.0,375000.0,301010.99,237304.11,375000.0,375000.0,,,,,
0.038,2890906,-11715.93,28647.78,375000.0,375000.0,301007.16,237312.1,375000.0,375000.0,,,,,
0.039,2890907,-11720.35,28644.3,375000.0,375000.0,301002.88,237325.15,375000.0,375000.0,,,,,
0.040,2890908,-11724.16,28641.13,375000.0,375000.0,300996.72,237335.75,375000.0,375000.0,,,,,
0.041,2890909,-11727.12,28638.14,375000.0,375000.0,300988.39,237337.14,375000.0,375000.0,,,,,
0.042,2890910,-11729.21,28635.21,375000.0,375000.0,300979.33,237326.85,375000.0,375000.0,,,,,
0.043,2890911,-11730.47,28632.56,375000.0,375000.0,300972.46,237308.19,375000.0,375000.0,,,,,
0.044,2890912,-11730.82,28630.72,375000.0,375000.0,300970.77,237288.74,375000.0,375000.0,,,,,
0.045,2890913,-11729.99,28630.41,375000.0,375000.0,300975.77,237276.62,375000.0,375000.0,,,,,
0.046,2890914,-11727.68,28632.13,375000.0,375000.0,300986.46,237276.46,375000.0,375000.0,,,,,
0.047,2890915,-11723.78,28635.89,375000.0,375000.0,300999.54,237287.23,375000.0,375000.0,,,,,
0.048,2890916,-11718.66,28641.06,375000.0,375000.0,301010.75,237302.94,375000.0,375000.0,,,,,
0.049,2890917,-11713.18,28646.51,375000.0,375000.0,301016.74,237315.86,375000.0,375000.0,,,,,
0.050,2890918,-11708.57,28650.95,375000.0,375000.0,301016.5,237320.47,375000.0,375000.0,,,,,
0.051,2890919,-11706.02,28653.38,375000.0,375000.0,301011.54,237316.0,375000.0,375000.0,,,,,
0.052,2890920,-11706.23,28653.34,375000.0,375000.0,301004.99,237306.37,375000.0,375000.0,,,,,
0.053,2890921,-11709.19,28651.02,375000.0,375000.0,300999.91,237297.65,375000.0,375000.0,,,,,
0.054,2890922,-11714.19,28647.02,375000.0,375000.0,300998.0,237294.64,375000.0,375000.0,,,,,
0.055,2890923,-11720.16,28642.06,375000.0,375000.0,300999.09,237298.29,375000.0,375000.0,,,,,
0.056,2890924,-11726.06,28636.75,375000.0,375000.0,301001.78,237305.59,375000.0,375000.0,,,,,
0.057,2890925,-11731.2,28631.45,375000.0,375000.0,301004.51,237311.5,375000.0,375000.0,,,,,
0.058,2890926,-11735.3,28626.43,375000.0,375000.0,301006.48,237312.01,375000.0,375000.0,,,,,
0.059,2890927,-11738.31,28622.01,375000.0,375000.0,301007.87,237306.35,375000.0,375000.0,,,,,
0.060,2890928,-11740.13,28618.75,375000.0,375000.0,301009.25,237297.3,375000.0,375000.0,,,,,
0.061,2890929,-11740.46,28617.37,375000.0,375000.0,301010.85,237289.45,375000.0,375000.0,,,,,
0.062,2890930,-11738.9,28618.46,375000.0,375000.0,301012.12,237286.68,375000.0,375000.0,,,,,
0.063,2890931,-11735.22,28622.2,375000.0,375000.0,301012.03,237290.08,375000.0,375000.0,,,,,
0.064,2890932,-11729.71,28628.08,375000.0,375000.0,301009.89,237297.72,375000.0,375000.0,,,,,
0.065,2890933,-11723.28,28634.97,375000.0,375000.0,301006.07,237306.01,375000.0,375000.0,,,,,
0.066,2890934,-11717.29,28641.38,375000.0,375000.0,301002.16,237311.88,375000.0,375000.0,,,,,
0.067,2890935,-11713.0,28646.01,375000.0,375000.0,301000.17,237314.39,375000.0,375000.0,,,,,
0.068,2890936,-11711.17,28648.15,375000.0,375000.0,301001.39,237314.85,375000.0,375000.0,,,,,
0.069,2890937,-11711.73,28647.89,375000.0,375000.0,301005.41,237315.57,375000.0,375000.0,,,,,
0.070,2890938,-11713.92,28645.9,375000.0,375000.0,301010.05,237318.02,375000.0,375000.0,,,,,
0.071,2890939,-11716.74,28643.1,375000.0,375000.0,301012.34,237321.62,375000.0,375000.0,,,,,
0.072,2890940,-11719.48,28640.15,375000.0,375000.0,301010.12,237323.98,375000.0,375000.0,,,,,
0.073,2890941,-11721.99,28637.23,375000.0,375000.0,301003.22,237322.31,375000.0,375000.0,,,,,
0.074,2890942,-11724.61,28634.14,375000.0,375000.0,300993.77,237315.33,375000.0,375000.0,,,,,
0.075,2890943,-11727.7,28630.6,375000.0,375000.0,300985.2,237304.3,375000.0,375000.0,,,,,
0.076,2890944,-11731.2,28626.7,375000.0,375000.0,300980.56,237292.7,375000.0,375000.0,,,,,
0.077,2890945,-11734.37,28623.08,375000.0,375000.0,300981.1,237284.56,375000.0,375000.0,,,,,
0.078,2890946,-11736.04,28620.84,375000.0,375000.0,300985.73,237282.5,375000.0,375000.0,,,,,
0.079,2890947,-11735.15,28621.05,375000.0,375000.0,300991.87,237286.42,375000.0,375000.0,,,,,
0.080,2890948,-11731.36,28624.22,375000.0,375000.0,300996.89,237293.67,375000.0,375000.0,,,,,
0.081,2890949,-11725.41,28629.94,375000.0,375000.0,300999.52,237300.47,375000.0,375000.0,,,,,
0.082,2890950,-11718.9,28636.84,375000.0,375000.0,301000.36,237303.85,375000.0,375000.0,,,,,
0.083,2890951,-11713.62,28643.07,375000.0,375000.0,301001.23,237303.0,375000.0,375000.0,,,,,
0.084,2890952,-11710.83,28646.91,375000.0,375000.0,301003.77,237299.38,375000.0,375000.0,,,,,
0.085,2890953,-11710.78,28647.42,375000.0,375000.0,301008.27,237295.6,375000.0,375000.0,,,,,
0.086,2890954,-11712.7,28644.69,375000.0,375000.0,301013.35,237293.83,375000.0,375000.0,,,,,
0.087,2890955,-11715.41,28639.66,375000.0,375000.0,301016.65,237294.61,375000.0,375000.0,,,,,
0.088,2890956,-11717.96,28633.71,375000.0,375000.0,301016.27,237296.69,375000.0,375000.0,,,,,
0.089,2890957,-11720.16,28628.04,375000.0,375000.0,301011.95,237297.94,375000.0,375000.0,,,,,
0.090,2890958,-11722.48,28623.33,375000.0,375000.0,301005.39,237296.7,375000.0,375000.0,,,,,
0.091,2890959,-11725.61,28619.71,375000.0,375000.0,300999.52,237292.79,375000.0,375000.0,,,,,
0.092,2890960,-11729.77,28616.98,375000.0,375000.0,300997.01,237287.58,375000.0,375000.0,,,,,
0.093,2890961,-11734.36,28614.98,375000.0,375000.0,300998.99,237283.24,375000.0,375000.0,,,,,
0.094,2890962,-11738.07,28613.8,375000.0,375000.0,301004.54,237281.53,375000.0,375000.0,,,,,
0.095,2890963,-11739.52,28613.76,375000.0,375000.0,301011.24,237282.87,375000.0,375000.0,,,,,
0.096,2890964,-11737.99,28615.16,375000.0,375000.0,301016.34,237286.23,375000.0,375000.0,,,,,
0.097,2890965,-11733.95,28618.01,375000.0,375000.0,301018.07,237289.71,375000.0,375000.0,,,,,
0.098,2890966,-11728.88,28621.83,375000.0,375000.0,301016.24,237291.57,375000.0,375000.0,,,,,
0.099,2890967,-11724.65,28625.78,375000.0,375000.0,301012.05,237291.06,375000.0,375000.0,,,,,
0.100,2890968,-11722.64,28628.9,375000.0,375000.0,301007.3,237288.67,375000.0,375000.0,,,,,
0.101,2890969,-11723.18,28630.55,375000.0,375000.0,301003.53,237285.79,375000.0,375000.0,,,,,
0.102,2890970,-11725.49,28630.58,375000.0,375000.0,301001.52,237283.96,375000.0,375000.0,,,,,
0.103,2890971,-11728.31,28629.31,375000.0,375000.0,301001.29,237284.26,375000.0,375000.0,,,,,
0.104,2890972,-11730.74,28627.27,375000.0,375000.0,301002.45,237286.95,375000.0,375000.0,,,,,
0.105,2890973,-11732.79,28624.89,375000.0,375000.0,301004.41,237291.57,375000.0,375000.0,,,,,
0.106,2890974,-11735.41,28622.23,375000.0,375000.0,301006.47,237297.21,375000.0,375000.0,,,,,
0.107,2890975,-11739.83,28619.0,375000.0,375000.0,301007.61,237302.77,375000.0,375000.0,,,,,
0.108,2890976,-11746.7,28614.86,375000.0,375000.0,301006.47,237307.18,375000.0,375000.0,,,,,
0.109,2890977,-11755.4,28609.73,375000.0,375000.0,301001.7,237309.44,375000.0,375000.0,,,,,
0.110,2890978,-11764.0,28604.05,375000.0,375000.0,300992.77,237308.81,375000.0,375000.0,,,,,
0.111,2890979,-11769.89,28598.81,375000.0,375000.0,300980.79,237305.13,375000.0,375000.0,,,,,
0.112,2890980,-11770.85,28595.28,375000.0,375000.0,300968.8,237299.06,375000.0,375000.0,,,,,
0.113,2890981,-11766.0,28594.57,375000.0,375000.0,300961.13,237292.26,375000.0,375000.0,,,,,
0.114,2890982,-11756.12,28597.22,375000.0,375000.0,300961.79,237287.02,375000.0,375000.0,,,,,
0.115,2890983,-11743.37,28603.0,375000.0,375000.0,300972.68,237285.56,375000.0,375000.0,,,,,
0.116,2890984,-11730.43,28610.9,375000.0,375000.0,300992.2,237289.08,375000.0,375000.0,,,,,
0.117,2890985,-11719.6,28619.47,375000.0,375000.0,301015.4,237297.14,375000.0,375000.0,,,,,
0.118,2890986,-11712.2,28627.12,375000.0,375000.0,301035.52,237307.58,375000.0,375000.0,,,,,
0.119,2890987,-11708.56,28632.53,375000.0,375000.0,301046.61,237317.26,375000.0,375000.0,,,,,
0.120,2890988,-11708.34,28634.85,375000.0,375000.0,301045.89,237323.31,375000.0,375000.0,,,,,
0.121,2890989,-11711.09,28633.74,375000.0,375000.0,301034.93,237324.29,375000.0,375000.0,,,,,
0.122,2890990,-11716.43,28629.41,375000.0,375000.0,301018.94,237320.77,375000.0,375000.0,,,,,
0.123,2890991,-11724.05,28622.44,375000.0,375000.0,301004.46,237315.04,375000.0,375000.0,,,,,
0.124,2890992,-11733.34,28613.74,375000.0,375000.0,300996.6,237310.03,375000.0,375000.0,,,,,
0.125,2890993,-11743.24,28604.4,375000.0,375000.0,300996.97,237307.98,375000.0,375000.0,,,,,
0.126,2890994,-11752.26,28595.55,375000.0,375000.0,301003.35,237309.52,375000.0,375000.0,,,,,
0.127,2890995,-11758.87,28588.19,375000.0,375000.0,301011.15,237313.55,375000.0,375000.0,,,,,
0.128,2890996,-11762.07,28583.06,375000.0,375000.0,301015.91,237317.94,375000.0,375000.0,,,,,
0.129,2890997,-11761.76,28580.5,375000.0,375000.0,301015.56,237320.7,375000.0,375000.0,,,,,
0.130,2890998,-11758.75,28580.41,375000.0,375000.0,301011.34,237320.98,375000.0,375000.0,,,,,
0.131,2890999,-11754.38,28582.35,375000.0,375000.0,301006.96,237319.42,375000.0,375000.0,,,,,
0.132,2891000,-11749.91,28585.62,375000.0,375000.0,301006.49,237317.71,375000.0,375000.0,,,,,
0.133,2891001,-11746.02,28589.46,375000.0,375000.0,301012.09,237317.6,375000.0,375000.0,,,,,
0.134,2891002,-11742.75,28593.14,375000.0,375000.0,301022.74,237319.97,375000.0,375000.0,,,,,
0.135,2891003,-11739.81,28596.02,375000.0,375000.0,301034.61,237324.27,375000.0,375000.0,,,,,
0.136,2891004,-11737.05,28597.64,375000.0,375000.0,301042.89,237328.83,375000.0,375000.0,,,,,
0.137,2891005,-11734.83,28597.73,375000.0,375000.0,301044.11,237331.62,375000.0,375000.0,,,,,
0.138,2891006,-11733.99,28596.26,375000.0,375000.0,301037.82,237331.22,375000.0,375000.0,,,,,
0.139,2891007,-11735.44,28593.5,375000.0,375000.0,301026.67,237327.5,375000.0,375000.0,,,,,
0.140,2891008,-11739.49,28590.03,375000.0,375000.0,301015.09,237321.57,375000.0,375000.0,,,,,
0.141,2891009,-11745.48,28586.63,375000.0,375000.0,301007.13,237315.28,375000.0,375000.0,,,,,
0.142,2891010,-11751.83,28584.09,375000.0,375000.0,301004.61,237310.33,375000.0,375000.0,,,,,
0.143,2891011,-11756.53,28583.05,375000.0,375000.0,301006.55,237307.61,375000.0,375000.0,,,,,
0.144,2891012,-11758.01,28583.7,375000.0,375000.0,301010.02,237306.95,375000.0,375000.0,,,,,
0.145,2891013,-11755.79,28585.78,375000.0,375000.0,301011.99,237307.37,375000.0,375000.0,,,,,
0.146,2891014,-11750.69,28588.63,375000.0,375000.0,301010.93,237307.67,375000.0,375000.0,,,,,
0.147,2891015,-11744.46,28591.44,375000.0,375000.0,301007.58,237306.96,375000.0,375000.0,,,,,
0.148,2891016,-11738.98,28593.54,375000.0,375000.0,301004.23,237305.06,375000.0,375000.0,,,,,
0.149,2891017,-11735.49,28594.61,375000.0,375000.0,301003.27,237302.39,375000.0,375000.0,,,,,
0.150,2891018,-11734.16,28594.77,375000.0,375000.0,301005.59,237299.74,375000.0,375000.0,,,,,
0.151,2891019,-11734.19,28594.39,375000.0,375000.0,301010.07,237297.9,375000.0,375000.0,,,,,
0.152,2891020,-11734.45,28593.88,375000.0,375000.0,301014.19,237297.43,375000.0,375000.0,,,,,
0.153,2891021,-11734.18,28593.37,375000.0,375000.0,301015.57,237298.56,375000.0,375000.0,,,,,
0.154,2891022,-11733.47,28592.61,375000.0,375000.0,301013.42,237301.19,375000.0,375000.0,,,,,
0.155,2891023,-11733.21,28591.02,375000.0,375000.0,301009.12,237304.96,375000.0,375000.0,,,,,
0.156,2891024,-11734.6,28587.97,375000.0,375000.0,301005.49,237309.2,375000.0,375000.0,,,,,
0.157,2891025,-11738.42,28583.17,375000.0,375000.0,301005.18,237312.99,375000.0,375000.0,,,,,
0.158,2891026,-11744.46,28576.92,375000.0,375000.0,301009.13,237315.28,375000.0,375000.0,,,,,
0.159,2891027,-11751.43,28570.21,375000.0,375000.0,301015.94,237315.2,375000.0,375000.0,,,,,
0.160,2891028,-11757.4,28564.49,375000.0,375000.0,301022.59,237312.47,375000.0,375000.0,,,,,
0.161,2891029,-11760.55,28561.19,375000.0,375000.0,301026.09,237307.74,375000.0,375000.0,,,,,
0.162,2891030,-11759.97,28561.22,375000.0,375000.0,301025.13,237302.55,375000.0,375000.0,,,,,
0.163,2891031,-11756.01,28564.54,375000.0,375000.0,301020.74,237298.85,375000.0,375000.0,,,,,
0.164,2891032,-11750.23,28570.09,375000.0,375000.0,301015.59,237298.24,375000.0,375000.0,,,,,
0.165,2891033,-11744.68,28576.19,375000.0,375000.0,301012.41,237301.18,375000.0,375000.0,,,,,
0.166,2891034,-11741.13,28581.04,375000.0,375000.0,301012.36,237306.62,375000.0,375000.0,,,,,
0.167,2891035,-11740.37,28583.5,375000.0,375000.0,301014.39,237312.3,375000.0,375000.0,,,,,
0.168,2891036,-11741.97,28583.4,375000.0,375000.0,301016.05,237315.67,375000.0,375000.0,,,,,
0.169,2891037,-11744.65,28581.6,375000.0,375000.0,301015.15,237315.0,375000.0,375000.0,,,,,
0.170,2891038,-11746.89,28579.5,375000.0,375000.0,301011.32,237310.16,375000.0,375000.0,,,,,
0.171,2891039,-11747.71,28578.36,375000.0,375000.0,301006.48,237302.73,375000.0,375000.0,,,,,
0.172,2891040,-11747.12,28578.65,375000.0,375000.0,301003.77,237295.21,375000.0,375000.0,,,,,
0.173,2891041,-11746.07,28579.82,375000.0,375000.0,301005.7,237289.87,375000.0,375000.0,,,,,
0.174,2891042,-11745.95,28580.6,375000.0,375000.0,301012.34,237287.74,375000.0,375000.0,,,,,
0.175,2891043,-11747.82,28579.71,375000.0,375000.0,301021.01,237288.37,375000.0,375000.0,,,,,
0.176,2891044,-11751.78,28576.6,375000.0,375000.0,301027.54,237290.37,375000.0,375000.0,,,,,
0.177,2891045,-11756.78,28571.94,375000.0,375000.0,301028.61,237292.44,375000.0,375000.0,,,,,
0.178,2891046,-11760.93,28567.51,375000.0,375000.0,301023.83,237294.33,375000.0,375000.0,,,,,
0.179,2891047,-11762.28,28565.44,375000.0,375000.0,301016.26,237296.97,375000.0,375000.0,,,,,
0.180,2891048,-11759.65,28567.3,375000.0,375000.0,301010.99,237301.7,375000.0,375000.0,,,,,
0.181,2891049,-11753.2,28573.24,375000.0,375000.0,301012.38,237309.1,375000.0,375000.0,,,,,
0.182,2891050,-11744.44,28581.77,375000.0,375000.0,301021.51,237317.93,375000.0,375000.0,,,,,
0.183,2891051,-11735.76,28590.26,375000.0,375000.0,301035.19,237325.19,375000.0,375000.0,,,,,
0.184,2891052,-11729.55,28595.99,375000.0,375000.0,301047.26,237327.33,375000.0,375000.0,,,,,
0.185,2891053,-11727.4,28597.16,375000.0,375000.0,301051.51,237322.14,375000.0,375000.0,,,,,
0.186,2891054,-11729.64,28593.61,375000.0,375000.0,301044.76,237310.36,375000.0,375000.0,,,,,
0.187,2891055,-11735.37,28586.74,375000.0,375000.0,301028.5,237296.06,375000.0,375000.0,,,,,
0.188,2891056,-11743.03,28578.8,375000.0,375000.0,301008.21,237285.19,375000.0,375000.0,,,,,
0.189,2891057,-11750.97,28571.88,375000.0,375000.0,300990.75,237283.06,375000.0,375000.0,,,,,
0.190,2891058,-11758.04,28567.11,375000.0,375000.0,300981.17,237291.68,375000.0,375000.0,,,,,
0.191,2891059,-11763.73,28564.39,375000.0,375000.0,300980.62,237308.37,375000.0,375000.0,,,,,
0.192,2891060,-11767.99,28562.78,375000.0,375000.0,300986.3,237326.59,375000.0,375000.0,,,,,
0.193,2891061,-11770.94,28561.24,375000.0,375000.0,300993.31,237338.56,375000.0,375000.0,,,,,
0.194,2891062,-11772.53,28559.36,375000.0,375000.0,300997.37,237338.66,375000.0,375000.0,,,,,
0.195,2891063,-11772.49,28557.59,375000.0,375000.0,300996.84,237325.99,375000.0,375000.0,,,,,
0.196,2891064,-11770.52,28557.05,375000.0,375000.0,300993.14,237304.84,375000.0,375000.0,,,,,
0.197,2891065,-11766.57,28558.79,375000.0,375000.0,300989.5,237282.88,375000.0,375000.0,,,,,
0.198,2891066,-11761.02,28563.23,375000.0,375000.0,300988.99,237267.93,375000.0,375000.0,,,,,
0.199,2891067,-11754.72,28569.77,375000.0,375000.0,300992.82,237264.76,375000.0,375000.0,,,,,
0.200,2891068,-11748.73,28577.03,375000.0,375000.0,300999.98,237273.42,375000.0,375000.0,,,,,
0.201,2891069,-11744.02,28583.37,375000.0,375000.0,301007.98,237289.73,375000.0,375000.0,,,,,
0.202,2891070,-11741.19,28587.53,375000.0,375000.0,301014.23,237307.41,375000.0,375000.0,,,,,
0.203,2891071,-11740.4,28589.08,375000.0,375000.0,301017.23,237320.83,375000.0,375000.0,,,,,
0.204,2891072,-11741.48,28588.4,375000.0,375000.0,301016.87,237326.97,375000.0,375000.0,,,,,
0.205,2891073,-11744.04,28586.33,375000.0,375000.0,301013.96,237325.9,375000.0,375000.0,,,,,
0.206,2891074,-11747.62,28583.79,375000.0,375000.0,301009.56,237319.91,375000.0,375000.0,,,,,
0.207,2891075,-11751.7,28581.39,375000.0,375000.0,301004.51,237311.98,375000.0,375000.0,,,,,
0.208,2891076,-11755.67,28579.42,375000.0,375000.0,300999.48,237304.49,375000.0,375000.0,,,,,
0.209,2891077,-11758.8,28577.92,375000.0,375000.0,300995.25,237298.76,375000.0,375000.0,,,,,
0.210,2891078,-11760.41,28576.92,375000.0,375000.0,300992.84,237295.33,375000.0,375000.0,,,,,
0.211,2891079,-11760.09,28576.51,375000.0,375000.0,300993.17,237294.36,375000.0,375000.0,,,,,
0.212,2891080,-11757.97,28576.73,375000.0,375000.0,300996.38,237295.87,375000.0,375000.0,,,,,
0.213,2891081,-11754.74,28577.44,375000.0,375000.0,301001.37,237299.43,375000.0,375000.0,,,,,
0.214,2891082,-11751.55,28578.26,375000.0,375000.0,301006.0,237303.85,375000.0,375000.0,,,,,
0.215,2891083,-11749.46,28578.68,375000.0,375000.0,301008.06,237307.25,375000.0,375000.0,,,,,
0.216,2891084,-11749.04,28578.32,375000.0,375000.0,301006.52,237307.76,375000.0,375000.0,,,,,
0.217,2891085,-11750.1,28577.14,375000.0,375000.0,301002.35,237304.72,375000.0,375000.0,,,,,
0.218,2891086,-11751.84,28575.57,375000.0,375000.0,300998.14,237299.5,375000.0,375000.0,,,,,
0.219,2891087,-11753.24,28574.24,375000.0,375000.0,300996.72,237295.33,375000.0,375000.0,,,,,
0.220,2891088,-11753.75,28573.63,375000.0,375000.0,300999.35,237295.89,375000.0,375000.0,,,,,
0.221,2891089,-11753.58,28573.66,375000.0,375000.0,301004.72,237303.21,375000.0,375000.0,,,,,
0.222,2891090,-11753.7,28573.66,375000.0,375000.0,301009.29,237316.03,375000.0,375000.0,,,,,
0.223,2891091,-11755.32,28572.63,375000.0,375000.0,301009.17,237329.69,375000.0,375000.0,,,,,
0.224,2891092,-11759.2,28569.78,375000.0,375000.0,301002.39,237337.89,375000.0,375000.0,,,,,
0.225,2891093,-11765.1,28565.05,375000.0,375000.0,300990.31,237335.66,375000.0,375000.0,,,,,
0.226,2891094,-11771.77,28559.25,375000.0,375000.0,300977.33,237322.0,375000.0,375000.0,,,,,
0.227,2891095,-11777.38,28553.85,375000.0,375000.0,300968.69,237300.8,375000.0,375000.0,,,,,
0.228,2891096,-11780.35,28550.29,375000.0,375000.0,300967.84,237279.36,375000.0,375000.0,,,,,
0.229,2891097,-11779.99,28549.35,375000.0,375000.0,300974.48,237265.08,375000.0,375000.0,,,,,
0.230,2891098,-11776.82,28550.81,375000.0,375000.0,300984.73,237262.04,375000.0,375000.0,,,,,
0.231,2891099,-11772.2,28553.6,375000.0,375000.0,300993.18,237269.15,375000.0,375000.0,,,,,
0.232,2891100,-11767.66,28556.38,375000.0,375000.0,300995.86,237281.0,375000.0,375000.0,,,,,
0.233,2891101,-11764.16,28558.24,375000.0,375000.0,300992.37,237290.82,375000.0,375000.0,,,,,
0.234,2891102,-11761.79,28559.07,375000.0,375000.0,300985.96,237294.08,375000.0,375000.0,,,,,
0.235,2891103,-11759.95,28559.5,375000.0,375000.0,300981.66,237290.65,375000.0,375000.0,,,,,
0.236,2891104,-11757.97,28560.38,375000.0,375000.0,300983.3,237284.55,375000.0,375000.0,,,,,
0.237,2891105,-11755.74,28562.09,375000.0,375000.0,300991.42,237281.3,375000.0,375000.0,,,,,
0.238,2891106,-11753.97,28564.21,375000.0,375000.0,301002.93,237284.63,375000.0,375000.0,,,,,
0.239,2891107,-11753.84,28565.65,375000.0,375000.0,301013.0,237294.25,375000.0,375000.0,,,,,
0.240,2891108,-11756.34,28565.27,375000.0,375000.0,301017.75,237306.09,375000.0,375000.0,,,,,
0.241,2891109,-11761.45,28562.59,375000.0,375000.0,301016.37,237314.66,375000.0,375000.0,,,,,
0.242,2891110,-11767.89,28558.27,375000.0,375000.0,301011.35,237316.32,375000.0,375000.0,,,,,
0.243,2891111,-11773.41,28553.94,375000.0,375000.0,301006.84,237311.36,375000.0,375000.0,,,,,
0.244,2891112,-11775.76,28551.56,375000.0,375000.0,301006.17,237303.72,375000.0,375000.0,,,,,
0.245,2891113,-11773.62,28552.48,375000.0,375000.0,301010.1,237298.7,375000.0,375000.0,,,,,
0.246,2891114,-11767.32,28556.76,375000.0,375000.0,301016.69,237299.77,375000.0,375000.0,,,,,
0.247,2891115,-11758.77,28563.13,375000.0,375000.0,301022.92,237306.67,375000.0,375000.0,,,,,
0.248,2891116,-11750.62,28569.52,375000.0,375000.0,301026.76,237315.71,375000.0,375000.0,,,,,
0.249,2891117,-11745.21,28574.05,375000.0,375000.0,301028.47,237322.12,375000.0,375000.0,,,,,
0.250,2891118,-11743.63,28575.79,375000.0,375000.0,301030.17,237323.04,375000.0,375000.0,,,,,
0.251,2891119,-11745.42,28575.08,375000.0,375000.0,301034.16,237319.22,375000.0,375000.0,,,,,
0.252,2891120,-11749.03,28573.19,375000.0,375000.0,301040.92,237314.48,375000.0,375000.0,,,,,
0.253,2891121,-11752.66,28571.5,375000.0,375000.0,301048.46,237313.19,375000.0,375000.0,,,,,
0.254,2891122,-11755.15,28570.81,375000.0,375000.0,301053.31,237317.38,375000.0,375000.0,,,,,
0.255,2891123,-11756.41,28570.91,375000.0,375000.0,301052.84,237325.32,375000.0,375000.0,,,,,
0.256,2891124,-11757.22,28570.84,375000.0,375000.0,301047.26,237332.45,375000.0,375000.0,,,,,
0.257,2891125,-11758.55,28569.58,375000.0,375000.0,301040.09,237334.19,375000.0,375000.0,,,,,
0.258,2891126,-11760.91,28566.72,375000.0,375000.0,301036.54,237328.9,375000.0,375000.0,,,,,
0.259,2891127,-11763.94,28562.81,375000.0,375000.0,301040.59,237319.11,375000.0,375000.0,,,,,
0.260,2891128,-11766.57,28559.14,375000.0,375000.0,301052.46,237310.16,375000.0,375000.0,,,,,
0.261,2891129,-11767.67,28557.05,375000.0,375000.0,301067.98,237307.01,375000.0,375000.0,,,,,
0.262,2891130,-11766.68,28557.27,375000.0,375000.0,301080.29,237311.14,375000.0,375000.0,,,,,
0.263,2891131,-11763.93,28559.47,375000.0,375000.0,301083.15,237319.52,375000.0,375000.0,,,,,
0.264,2891132,-11760.52,28562.44,375000.0,375000.0,301073.87,237326.54,375000.0,375000.0,,,,,
0.265,2891133,-11757.75,28564.79,375000.0,375000.0,301054.5,237327.78,375000.0,375000.0,,,,,
0.266,2891134,-11756.39,28565.63,375000.0,375000.0,301030.57,237323.43,375000.0,375000.0,,,,,
0.267,2891135,-11756.37,28565.08,375000.0,375000.0,301008.44,237319.15,375000.0,375000.0,,,,,
0.268,2891136,-11756.82,28564.15,375000.0,375000.0,300992.65,237323.31,375000.0,375000.0,,,,,
0.269,2891137,-11756.72,28564.08,375000.0,375000.0,300984.88,237342.06,375000.0,375000.0,,,,,
0.270,2891138,-11755.52,28565.57,375000.0,375000.0,300984.82,237374.71,375000.0,375000.0,,,,,
0.271,2891139,-11753.62,28568.19,375000.0,375000.0,300991.91,237412.3,375000.0,375000.0,,,,,
0.272,2891140,-11752.3,28570.46,375000.0,375000.0,301006.52,237440.57,375000.0,375000.0,,,,,
0.273,2891141,-11753.08,28570.48,375000.0,375000.0,301029.5,237446.13,375000.0,375000.0,,,,,
0.274,2891142,-11756.98,28566.89,375000.0,375000.0,301060.17,237422.91,375000.0,375000.0,,,,,
0.275,2891143,-11763.84,28559.71,375000.0,375000.0,301094.14,237375.55,375000.0,375000.0,,,,,
0.276,2891144,-11772.26,28550.51,375000.0,375000.0,301122.88,237317.9,375000.0,375000.0,,,,,
0.277,2891145,-11780.03,28541.93,375000.0,375000.0,301135.91,237267.22,375000.0,375000.0,,,,,
0.278,2891146,-11784.99,28536.64,375000.0,375000.0,301125.01,237236.88,375000.0,375000.0,,,,,
0.279,2891147,-11785.86,28536.26,375000.0,375000.0,301088.62,237231.13,375000.0,375000.0,,,,,
0.280,2891148,-11782.68,28540.67,375000.0,375000.0,301033.78,237244.31,375000.0,375000.0,,,,,
0.281,2891149,-11776.73,28548.11,375000.0,375000.0,300974.38,237264.57,375000.0,375000.0,,,,,
0.282,2891150,-11769.94,28555.88,375000.0,375000.0,300926.04,237280.12,375000.0,375000.0,,,,,
0.283,2891151,-11764.13,28561.47,375000.0,375000.0,300899.99,237284.46,375000.0,375000.0,,,,,
0.284,2891152,-11760.48,28563.38,375000.0,375000.0,300898.86,237278.49,375000.0,375000.0,,,,,
0.285,2891153,-11759.27,28561.64,375000.0,375000.0,300916.43,237268.55,375000.0,375000.0,,,,,
0.286,2891154,-11760.08,28557.48,375000.0,375000.0,300941.24,237262.11,375000.0,375000.0,,,,,
0.287,2891155,-11762.25,28552.69,375000.0,375000.0,300962.31,237263.58,375000.0,375000.0,,,,,
0.288,2891156,-11765.15,28548.75,375000.0,375000.0,300973.83,237272.48,375000.0,375000.0,,,,,
0.289,2891157,-11768.43,28546.4,375000.0,375000.0,300976.65,237284.46,375000.0,375000.0,,,,,
0.290,2891158,-11771.86,28545.49,375000.0,375000.0,300976.19,237294.38,375000.0,375000.0,,,,,
0.291,2891159,-11775.22,28545.38,375000.0,375000.0,300978.22,237299.19,375000.0,375000.0,,,,,
0.292,2891160,-11778.08,28545.4,375000.0,375000.0,300985.03,237299.18,375000.0,375000.0,,,,,
0.293,2891161,-11779.85,28545.33,375000.0,375000.0,300994.27,237297.05,375000.0,375000.0,,,,,
0.294,2891162,-11779.96,28545.42,375000.0,375000.0,301000.74,237295.73,375000.0,375000.0,,,,,
0.295,2891163,-11778.15,28546.22,375000.0,375000.0,301000.02,237296.51,375000.0,375000.0,,,,,
0.296,2891164,-11774.51,28548.24,375000.0,375000.0,300991.5,237298.62,375000.0,375000.0,,,,,
0.297,2891165,-11769.56,28551.64,375000.0,375000.0,300979.2,237300.35,375000.0,375000.0,,,,,
0.298,2891166,-11763.95,28556.16,375000.0,375000.0,300969.7,237300.79,375000.0,375000.0,,,,,
0.299,2891167,-11758.32,28561.25,375000.0,375000.0,300968.66,237300.8,375000.0,375000.0,,,,,
0.300,2891168,-11753.09,28566.26,375000.0,375000.0,300977.77,237302.66,375000.0,375000.0,,,,,
0.301,2891169,-11748.51,28570.68,375000.0,375000.0,300993.99,237308.41,375000.0,375000.0,,,,,
0.302,2891170,-11744.86,28574.14,375000.0,375000.0,301011.31,237318.22,375000.0,375000.0,,,,,
0.303,2891171,-11742.48,28576.37,375000.0,375000.0,301023.95,237329.73,375000.0,375000.0,,,,,
0.304,2891172,-11741.86,28577.06,375000.0,375000.0,301029.17,237339.13,375000.0,375000.0,,,,,
0.305,2891173,-11743.41,28575.96,375000.0,375000.0,301028.12,237343.15,375000.0,375000.0,,,,,
0.306,2891174,-11747.15,28572.95,375000.0,375000.0,301024.47,237340.98,375000.0,375000.0,,,,,
0.307,2891175,-11752.57,28568.28,375000.0,375000.0,301021.89,237334.73,375000.0,375000.0,,,,,
0.308,2891176,-11758.59,28562.69,375000.0,375000.0,301021.86,237328.27,375000.0,375000.0,,,,,
0.309,2891177,-11763.88,28557.3,375000.0,375000.0,301023.15,237325.03,375000.0,375000.0,,,,,
0.310,2891178,-11767.32,28553.31,375000.0,375000.0,301023.11,237326.16,375000.0,375000.0,,,,,
0.311,2891179,-11768.37,28551.58,375000.0,375000.0,301019.83,237330.09,375000.0,375000.0,,,,,
0.312,2891180,-11767.26,28552.28,375000.0,375000.0,301013.69,237333.74,375000.0,375000.0,,,,,
0.313,2891181,-11764.82,28554.85,375000.0,375000.0,301007.44,237334.58,375000.0,375000.0,,,,,
0.314,2891182,-11762.01,28558.29,375000.0,375000.0,301004.61,237332.2,375000.0,375000.0,,,,,
0.315,2891183,-11759.53,28561.53,375000.0,375000.0,301007.4,237328.42,375000.0,375000.0,,,,,
0.316,2891184,-11757.55,28563.91,375000.0,375000.0,301015.23,237325.9,375000.0,375000.0,,,,,
0.317,2891185,-11755.82,28565.28,375000.0,375000.0,301024.82,237326.15,375000.0,375000.0,,,,,
0.318,2891186,-11754.03,28565.92,375000.0,375000.0,301031.74,237328.31,375000.0,375000.0,,,,,
0.319,2891187,-11752.17,28566.16,375000.0,375000.0,301032.61,237329.55,375000.0,375000.0,,,,,
0.320,2891188,-11750.72,28566.02,375000.0,375000.0,301026.57,237326.82,375000.0,375000.0,,,,,
0.321,2891189,-11750.5,28565.14,375000.0,375000.0,301015.52,237318.99,375000.0,375000.0,,,,,
0.322,2891190,-11752.21,28563.0,375000.0,375000.0,301003.03,237307.96,375000.0,375000.0,,,,,
0.323,2891191,-11755.97,28559.32,375000.0,375000.0,300992.66,237297.91,375000.0,375000.0,,,,,
0.324,2891192,-11761.06,28554.43,375000.0,375000.0,300986.69,237293.11,375000.0,375000.0,,,,,
0.325,2891193,-11766.1,28549.42,375000.0,375000.0,300985.74,237295.52,375000.0,375000.0,,,,,
0.326,2891194,-11769.51,28545.75,375000.0,375000.0,300989.17,237303.61,375000.0,375000.0,,,,,
0.327,2891195,-11770.18,28544.74,375000.0,375000.0,300995.88,237313.13,375000.0,375000.0,,,,,
0.328,2891196,-11767.91,28546.94,375000.0,375000.0,301004.77,237319.47,375000.0,375000.0,,,,,
0.329,2891197,-11763.48,28551.83,375000.0,375000.0,301014.74,237320.17,375000.0,375000.0,,,,,
0.330,2891198,-11758.29,28557.99,375000.0,375000.0,301024.45,237316.11,375000.0,375000.0,,,,,
0.331,2891199,-11753.75,28563.66,375000.0,375000.0,301032.24,237310.84,375000.0,375000.0,,,,,
0.332,2891200,-11750.77,28567.43,375000.0,375000.0,301036.54,237308.25,375000.0,375000.0,,,,,
0.333,2891201,-11749.5,28568.78,375000.0,375000.0,301036.63,237310.28,375000.0,375000.0,,,,,
0.334,2891202,-11749.45,28568.15,375000.0,375000.0,301033.18,237315.82,375000.0,375000.0,,,,,
0.335,2891203,-11749.94,28566.6,375000.0,375000.0,301028.21,237321.59,375000.0,375000.0,,,,,
0.336,2891204,-11750.46,28565.24,375000.0,375000.0,301024.25,237324.33,375000.0,375000.0,,,,,
0.337,2891205,-11750.93,28564.68,375000.0,375000.0,301023.17,237322.89,375000.0,375000.0,,,,,
0.338,2891206,-11751.66,28564.85,375000.0,375000.0,301025.21,237318.97,375000.0,375000.0,,,,,
0.339,2891207,-11753.01,28565.12,375000.0,375000.0,301028.98,237315.97,375000.0,375000.0,,,,,
0.340,2891208,-11755.17,28564.75,375000.0,375000.0,301032.31,237316.68,375000.0,375000.0,,,,,
0.341,2891209,-11757.94,28563.31,375000.0,375000.0,301033.55,237321.38,375000.0,375000.0,,,,,
0.342,2891210,-11760.81,28560.93,375000.0,375000.0,301032.59,237327.43,375000.0,375000.0,,,,,
0.343,2891211,-11763.18,28558.26,375000.0,375000.0,301030.85,237330.89,375000.0,375000.0,,,,,
0.344,2891212,-11764.57,28556.16,375000.0,375000.0,301030.39,237329.02,375000.0,375000.0,,,,,
0.345,2891213,-11764.73,28555.35,375000.0,375000.0,301032.66,237322.27,375000.0,375000.0,,,,,
0.346,2891214,-11763.6,28556.18,375000.0,375000.0,301037.59,237314.46,375000.0,375000.0,,,,,
0.347,2891215,-11761.24,28558.57,375000.0,375000.0,301043.65,237310.84,375000.0,375000.0,,,,,
0.348,2891216,-11757.76,28562.09,375000.0,375000.0,301048.79,237315.16,375000.0,375000.0,,,,,
0.349,2891217,-11753.38,28566.12,375000.0,375000.0,301051.53,237327.46,375000.0,375000.0,,,,,
0.350,2891218,-11748.6,28569.95,375000.0,375000.0,301051.65,237343.79,375000.0,375000.0,,,,,
0.351,2891219,-11744.26,28572.86,375000.0,375000.0,301049.89,237358.09,375000.0,375000.0,,,,,
0.352,2891220,-11741.44,28574.15,375000.0,375000.0,301047.05,237365.21,375000.0,375000.0,,,,,
0.353,2891221,-11741.16,28573.29,375000.0,375000.0,301043.1,237363.23,375000.0,375000.0,,,,,
0.354,2891222,-11743.93,28570.09,375000.0,375000.0,301037.09,237353.9,375000.0,375000.0,,,,,
0.355,2891223,-11749.37,28564.89,375000.0,375000.0,301028.0,237341.05,375000.0,375000.0,,,,,
0.356,2891224,-11756.24,28558.63,375000.0,375000.0,301016.04,237328.09,375000.0,375000.0,,,,,
0.357,2891225,-11762.73,28552.63,375000.0,375000.0,301003.51,237316.23,375000.0,375000.0,,,,,
0.358,2891226,-11767.16,28548.26,375000.0,375000.0,300994.53,237304.64,375000.0,375000.0,,,,,
0.359,2891227,-11768.59,28546.43,375000.0,375000.0,300993.39,237292.32,375000.0,375000.0,,,,,
0.360,2891228,-11767.18,28547.23,375000.0,375000.0,301002.43,237280.43,375000.0,375000.0,,,,,
0.361,2891229,-11764.03,28549.98,375000.0,375000.0,301020.46,237273.34,375000.0,375000.0,,,,,
0.362,2891230,-11760.68,28553.46,375000.0,375000.0,301042.81,237277.3,375000.0,375000.0,,,,,
0.363,2891231,-11758.35,28556.52,375000.0,375000.0,301063.07,237297.08,375000.0,375000.0,,,,,
0.364,2891232,-11757.45,28558.55,375000.0,375000.0,301075.71,237332.37,375000.0,375000.0,,,,,
0.365,2891233,-11757.44,28559.71,375000.0,375000.0,301078.26,237376.06,375000.0,375000.0,,,,,
0.366,2891234,-11757.26,28560.77,375000.0,375000.0,301071.92,237415.81,375000.0,375000.0,,,,,
0.367,2891235,-11755.92,28562.61,375000.0,375000.0,301060.46,237438.47,375000.0,375000.0,,,,,
0.368,2891236,-11753.08,28565.65,375000.0,375000.0,301047.91,237435.62,375000.0,375000.0,,,,,
0.369,2891237,-11749.28,28569.56,375000.0,375000.0,301036.62,237407.39,375000.0,375000.0,,,,,
0.370,2891238,-11745.73,28573.28,375000.0,375000.0,301026.67,237362.71,375000.0,375000.0,,,,,
0.371,2891239,-11743.75,28575.5,375000.0,375000.0,301016.86,237315.72,375000.0,375000.0,,,,,
0.372,2891240,-11744.15,28575.21,375000.0,375000.0,301006.66,237279.98,375000.0,375000.0,,,,,
0.373,2891241,-11746.95,28572.2,375000.0,375000.0,300997.67,237263.12,375000.0,375000.0,,,,,
0.374,2891242,-11751.32,28567.16,375000.0,375000.0,300993.62,237264.48,375000.0,375000.0,,,,,
0.375,2891243,-11756.04,28561.39,375000.0,375000.0,300998.68,237276.5,375000.0,375000.0,,,,,
0.376,2891244,-11759.95,28556.27,375000.0,375000.0,301014.86,237288.98,375000.0,375000.0,,,,,
0.377,2891245,-11762.38,28552.74,375000.0,375000.0,301040.07,237294.01,375000.0,375000.0,,,,,
0.378,2891246,-11763.23,28551.03,375000.0,375000.0,301067.88,237289.15,375000.0,375000.0,,,,,
0.379,2891247,-11762.86,28550.75,375000.0,375000.0,301089.47,237277.65,375000.0,375000.0,,,,,
0.380,2891248,-11761.81,28551.23,375000.0,375000.0,301096.86,237265.89,375000.0,375000.0,,,,,
0.381,2891249,-11760.48,28551.96,375000.0,375000.0,301086.09,237259.81,375000.0,375000.0,,,,,
0.382,2891250,-11759.09,28552.81,375000.0,375000.0,301058.77,237262.0,375000.0,375000.0,,,,,
0.383,2891251,-11757.69,28554.03,375000.0,375000.0,301021.38,237270.96,375000.0,375000.0,,,,,
0.384,2891252,-11756.26,28555.98,375000.0,375000.0,300982.86,237282.41,375000.0,375000.0,,,,,
0.385,2891253,-11754.89,28558.77,375000.0,375000.0,300951.39,237291.79,375000.0,375000.0,,,,,
0.386,2891254,-11753.69,28562.1,375000.0,375000.0,300931.96,237296.41,375000.0,375000.0,,,,,
0.387,2891255,-11752.76,28565.27,375000.0,375000.0,300925.41,237296.29,375000.0,375000.0,,,,,
0.388,2891256,-11752.08,28567.52,375000.0,375000.0,300929.16,237293.52,375000.0,375000.0,,,,,
0.389,2891257,-11751.51,28568.37,375000.0,375000.0,300938.88,237290.78,375000.0,375000.0,,,,,
0.390,2891258,-11750.88,28567.91,375000.0,375000.0,300950.33,237289.93,375000.0,375000.0,,,,,
0.391,2891259,-11750.08,28566.75,375000.0,375000.0,300960.65,237291.44,375000.0,375000.0,,,,,
0.392,2891260,-11749.2,28565.79,375000.0,375000.0,300968.71,237294.71,375000.0,375000.0,,,,,
0.393,2891261,-11748.5,28565.83,375000.0,375000.0,300974.82,237298.9,375000.0,375000.0,,,,,
0.394,2891262,-11748.24,28567.19,375000.0,375000.0,300980.09,237303.59,375000.0,375000.0,,,,,
0.395,2891263,-11748.48,28569.69,375000.0,375000.0,300985.71,237308.88,375000.0,375000.0,,,,,
0.396,2891264,-11748.91,28572.74,375000.0,375000.0,300992.51,237315.0,375000.0,375000.0,,,,,
0.397,2891265,-11748.88,28575.8,375000.0,375000.0,301000.59,237321.79,375000.0,375000.0,,,,,
0.398,2891266,-11747.53,28578.61,375000.0,375000.0,301009.36,237328.49,375000.0,375000.0,,,,,
0.399,2891267,-11744.16,28581.4,375000.0,375000.0,301017.68,237334.05,375000.0,375000.0,,,,,
0.400,2891268,-11738.58,28584.66,375000.0,375000.0,301024.34,237337.68,375000.0,375000.0,,,,,
0.401,2891269,-11731.23,28588.8,375000.0,375000.0,301028.5,237339.35,375000.0,375000.0,,,,,
0.402,2891270,-11723.22,28593.7,375000.0,375000.0,301030.12,237339.76,375000.0,375000.0,,,,,
0.403,2891271,-11716.06,28598.57,375000.0,375000.0,301029.92,237339.86,375000.0,375000.0,,,,,
0.404,2891272,-11711.24,28602.08,375000.0,375000.0,301029.03,237340.22,375000.0,375000.0,,,,,
0.405,2891273,-11709.83,28602.84,375000.0,375000.0,301028.32,237340.49,375000.0,375000.0,,,,,
0.406,2891274,-11712.11,28600.05,375000.0,375000.0,301027.89,237339.66,375000.0,375000.0,,,,,
0.407,2891275,-11717.52,28593.94,375000.0,375000.0,301027.07,237336.66,375000.0,375000.0,,,,,
0.408,2891276,-11724.71,28585.91,375000.0,375000.0,301024.93,237331.18,375000.0,375000.0,,,,,
0.409,2891277,-11731.94,28578.12,375000.0,375000.0,301021.12,237324.2,375000.0,375000.0,,,,,
0.410,2891278,-11737.51,28572.83,375000.0,375000.0,301016.42,237317.7,375000.0,375000.0,,,,,
0.411,2891279,-11740.16,28571.58,375000.0,375000.0,301012.6,237313.87,375000.0,375000.0,,,,,
0.412,2891280,-11739.44,28574.72,375000.0,375000.0,301011.55,237314.0,375000.0,375000.0,,,,,
0.413,2891281,-11735.76,28581.28,375000.0,375000.0,301014.1,237317.81,375000.0,375000.0,,,,,
0.414,2891282,-11730.19,28589.41,375000.0,375000.0,301019.26,237323.47,375000.0,375000.0,,,,,
0.415,2891283,-11724.07,28597.04,375000.0,375000.0,301024.46,237328.43,375000.0,375000.0,,,,,
0.416,2891284,-11718.63,28602.63,375000.0,375000.0,301026.76,237330.62,375000.0,375000.0,,,,,
0.417,2891285,-11714.6,28605.59,375000.0,375000.0,301024.51,237329.3,375000.0,375000.0,,,,,
0.418,2891286,-11712.12,28606.25,375000.0,375000.0,301018.39,237325.42,375000.0,375000.0,,,,,
0.419,2891287,-11710.88,28605.55,375000.0,375000.0,301011.28,237320.95,375000.0,375000.0,,,,,
0.420,2891288,-11710.45,28604.48,375000.0,375000.0,301006.82,237318.0,375000.0,375000.0,,,,,
0.421,2891289,-11710.59,28603.59,375000.0,375000.0,301007.41,237317.75,375000.0,375000.0,,,,,
0.422,2891290,-11711.38,28602.85,375000.0,375000.0,301012.84,237320.09,375000.0,375000.0,,,,,
0.423,2891291,-11713.14,28601.75,375000.0,375000.0,301020.34,237323.81,375000.0,375000.0,,,,,
0.424,2891292,-11716.15,28599.71,375000.0,375000.0,301026.12,237327.39,375000.0,375000.0,,,,,
0.425,2891293,-11720.33,28596.47,375000.0,375000.0,301027.59,237329.67,375000.0,375000.0,,,,,
0.426,2891294,-11725.06,28592.3,375000.0,375000.0,301024.93,237330.3,375000.0,375000.0,,,,,
0.427,2891295,-11729.31,28587.98,375000.0,375000.0,301021.03,237329.61,375000.0,375000.0,,,,,
0.428,2891296,-11731.99,28584.49,375000.0,375000.0,301019.79,237328.14,375000.0,375000.0,,,,,
0.429,2891297,-11732.4,28582.64,375000.0,375000.0,301023.73,237326.22,375000.0,375000.0,,,,,
0.430,2891298,-11730.55,28582.77,375000.0,375000.0,301032.23,237323.88,375000.0,375000.0,,,,,
0.431,2891299,-11727.17,28584.64,375000.0,375000.0,301041.74,237321.05,375000.0,375000.0,,,,,
0.432,2891300,-11723.39,28587.6,375000.0,375000.0,301047.66,237318.02,375000.0,375000.0,,,,,
0.433,2891301,-11720.31,28590.83,375000.0,375000.0,301047.09,237315.57,375000.0,375000.0,,,,,
0.434,2891302,-11718.55,28593.66,375000.0,375000.0,301040.65,237314.79,375000.0,375000.0,,,,,
0.435,2891303,-11718.1,28595.74,375000.0,375000.0,301032.29,237316.47,375000.0,375000.0,,,,,
0.436,2891304,-11718.48,28597.03,375000.0,375000.0,301027.04,237320.45,375000.0,375000.0,,,,,
0.437,2891305,-11719.12,28597.69,375000.0,375000.0,301027.9,237325.51,375000.0,375000.0,,,,,
0.438,2891306,-11719.71,28597.88,375000.0,375000.0,301033.73,237329.87,375000.0,375000.0,,,,,
0.439,2891307,-11720.35,28597.65,375000.0,375000.0,301039.5,237332.21,375000.0,375000.0,,,,,
0.440,2891308,-11721.4,28597.0,375000.0,375000.0,301039.03,237332.6,375000.0,375000.0,,,,,
0.441,2891309,-11723.12,28595.93,375000.0,375000.0,301028.64,237332.82,375000.0,375000.0,,,,,
0.442,2891310,-11725.3,28594.6,375000.0,375000.0,301009.9,237335.62,375000.0,375000.0,,,,,
0.443,2891311,-11727.21,28593.36,375000.0,375000.0,300989.69,237343.17,375000.0,375000.0,,,,,
0.444,2891312,-11727.85,28592.65,375000.0,375000.0,300977.3,237355.56,375000.0,375000.0,,,,,
0.445,2891313,-11726.41,28592.81,375000.0,375000.0,300980.06,237370.17,375000.0,375000.0,,,,,
0.446,2891314,-11722.78,28593.91,375000.0,375000.0,300999.55,237382.45,375000.0,375000.0,,,,,
0.447,2891315,-11717.72,28595.63,375000.0,375000.0,301030.5,237388.02,375000.0,375000.0,,,,,
0.448,2891316,-11712.65,28597.4,375000.0,375000.0,301062.89,237384.99,375000.0,375000.0,,,,,
0.449,2891317,-11709.08,28598.6,375000.0,375000.0,301086.22,237375.35,375000.0,375000.0,,,,,
0.450,2891318,-11707.99,28598.88,375000.0,375000.0,301093.79,237364.51,375000.0,375000.0,,,,,
0.451,2891319,-11709.4,28598.28,375000.0,375000.0,301085.02,237358.94,375000.0,375000.0,,,,,
0.452,2891320,-11712.43,28597.21,375000.0,375000.0,301064.81,237362.92,375000.0,375000.0,,,,,
0.453,2891321,-11715.8,28596.23,375000.0,375000.0,301040.69,237376.16,375000.0,375000.0,,,,,
0.454,2891322,-11718.49,28595.65,375000.0,375000.0,301019.4,237393.43,375000.0,375000.0,,,,,
0.455,2891323,-11720.23,28595.36,375000.0,375000.0,301004.74,237406.68,375000.0,375000.0,,,,,
0.456,2891324,-11721.57,28594.78,375000.0,375000.0,300997.44,237408.84,375000.0,375000.0,,,,,
0.457,2891325,-11723.53,28593.15,375000.0,375000.0,300996.63,237397.27,375000.0,375000.0,,,,,
0.458,2891326,-11726.93,28589.93,375000.0,375000.0,301001.51,237375.23,375000.0,375000.0,,,,,
0.459,2891327,-11731.82,28585.17,375000.0,375000.0,301012.01,237350.45,375000.0,375000.0,,,,,
0.460,2891328,-11737.28,28579.65,375000.0,375000.0,301027.94,237331.42,375000.0,375000.0,,,,,
0.461,2891329,-11741.74,28574.64,375000.0,375000.0,301047.38,237323.21,375000.0,375000.0,,,,,
0.462,2891330,-11743.61,28571.48,375000.0,375000.0,301065.79,237324.93,375000.0,375000.0,,,,,
0.463,2891331,-11741.99,28571.05,375000.0,375000.0,301076.64,237330.18,375000.0,375000.0,,,,,
0.464,2891332,-11737.0,28573.49,375000.0,375000.0,301073.96,237330.35,375000.0,375000.0,,,,,
0.465,2891333,-11729.81,28578.14,375000.0,375000.0,301055.35,237319.07,375000.0,375000.0,,,,,
0.466,2891334,-11722.09,28583.91,375000.0,375000.0,301023.88,237295.68,375000.0,375000.0,,,,,
0.467,2891335,-11715.43,28589.61,375000.0,375000.0,300987.68,237265.83,375000.0,375000.0,,,,,
0.468,2891336,-11710.89,28594.39,375000.0,375000.0,300956.92,237239.0,375000.0,375000.0,,,,,
0.469,2891337,-11708.81,28597.81,375000.0,375000.0,300939.74,237224.06,375000.0,375000.0,,,,,
0.470,2891338,-11708.96,28599.78,375000.0,375000.0,300938.85,237225.22,375000.0,375000.0,,,,,
0.471,2891339,-11710.88,28600.32,375000.0,375000.0,300950.67,237240.15,375000.0,375000.0,,,,,
0.472,2891340,-11714.05,28599.49,375000.0,375000.0,300967.33,237261.29,375000.0,375000.0,,,,,
0.473,2891341,-11718.01,28597.37,375000.0,375000.0,300980.42,237279.34,375000.0,375000.0,,,,,
0.474,2891342,-11722.18,28594.32,375000.0,375000.0,300984.75,237287.42,375000.0,375000.0,,,,,
0.475,2891343,-11725.8,28591.08,375000.0,375000.0,300980.17,237283.67,375000.0,375000.0,,,,,
0.476,2891344,-11727.94,28588.79,375000.0,375000.0,300970.8,237271.33,375000.0,375000.0,,,,,
0.477,2891345,-11727.78,28588.64,375000.0,375000.0,300962.46,237256.63,375000.0,375000.0,,,,,
0.478,2891346,-11724.95,28591.48,375000.0,375000.0,300959.51,237245.65,375000.0,375000.0,,,,,
0.479,2891347,-11719.78,28597.33,375000.0,375000.0,300963.11,237241.82,375000.0,375000.0,,,,,
0.480,2891348,-11713.29,28605.3,375000.0,375000.0,300971.3,237245.18,375000.0,375000.0,,,,,
0.481,2891349,-11706.79,28613.79,375000.0,375000.0,300980.66,237253.28,375000.0,375000.0,,,,,
0.482,2891350,-11701.38,28621.16,375000.0,375000.0,300988.42,237263.0,375000.0,375000.0,,,,,
0.483,2891351,-11697.51,28626.24,375000.0,375000.0,300993.63,237272.05,375000.0,375000.0,,,,,
0.484,2891352,-11694.89,28628.76,375000.0,375000.0,300996.98,237279.47,375000.0,375000.0,,,,,
0.485,2891353,-11692.81,28629.27,375000.0,375000.0,300999.6,237285.22,375000.0,375000.0,,,,,
0.486,2891354,-11690.68,28628.73,375000.0,375000.0,301001.8,237289.32,375000.0,375000.0,,,,,
0.487,2891355,-11688.52,28627.91,375000.0,375000.0,301002.67,237291.43,375000.0,375000.0,,,,,
0.488,2891356,-11687.06,28627.08,375000.0,375000.0,301000.87,237291.07,375000.0,375000.0,,,,,
0.489,2891357,-11687.39,28625.88,375000.0,375000.0,300995.98,237288.41,375000.0,375000.0,,,,,
0.490,2891358,-11690.34,28623.74,375000.0,375000.0,300989.52,237284.75,375000.0,375000.0,,,,,
0.491,2891359,-11695.86,28620.35,375000.0,375000.0,300984.77,237282.31,375000.0,375000.0,,,,,
0.492,2891360,-11702.83,28615.96,375000.0,375000.0,300985.34,237283.24,375000.0,375000.0,,,,,
0.493,2891361,-11709.37,28611.41,375000.0,375000.0,300993.2,237288.36,375000.0,375000.0,,,,,
0.494,2891362,-11713.57,28607.8,375000.0,375000.0,301007.27,237296.44,375000.0,375000.0,,,,,
0.495,2891363,-11714.33,28605.99,375000.0,375000.0,301023.51,237304.62,375000.0,375000.0,,,,,
0.496,2891364,-11711.71,28606.28,375000.0,375000.0,301036.53,237309.74,375000.0,375000.0,,,,,
0.497,2891365,-11706.91,28608.33,375000.0,375000.0,301042.01,237310.11,375000.0,375000.0,,,,,
0.498,2891366,-11701.63,28611.4,375000.0,375000.0,301038.73,237306.49,375000.0,375000.0,,,,,
0.499,2891367,-11697.3,28614.74,375000.0,375000.0,301029.11,237301.84,375000.0,375000.0,,,,,
0.500,2891368,-11694.54,28617.82,375000.0,375000.0,301018.05,237299.77,375000.0,375000.0,,,,,
0.501,2891369,-11693.06,28620.44,375000.0,375000.0,301010.66,237302.63,375000.0,375000.0,,,,,
0.502,2891370,-11692.08,28622.52,375000.0,375000.0,301009.97,237310.13,375000.0,375000.0,,,,,
0.503,2891371,-11690.92,28623.89,375000.0,375000.0,301015.75,237319.4,375000.0,375000.0,,,,,
0.504,2891372,-11689.47,28624.25,375000.0,375000.0,301025.04,237326.42,375000.0,375000.0,,,,,
0.505,2891373,-11688.25,28623.29,375000.0,375000.0,301033.69,237328.07,375000.0,375000.0,,,,,
0.506,2891374,-11688.09,28620.94,375000.0,375000.0,301038.41,237323.8,375000.0,375000.0,,,,,
0.507,2891375,-11689.63,28617.55,375000.0,375000.0,301038.07,237315.88,375000.0,375000.0,,,,,
0.508,2891376,-11692.85,28613.85,375000.0,375000.0,301033.81,237308.26,375000.0,375000.0,,,,,
0.509,2891377,-11697.08,28610.67,375000.0,375000.0,301028.14,237304.61,375000.0,375000.0,,,,,
0.510,2891378,-11701.26,28608.56,375000.0,375000.0,301023.61,237306.56,375000.0,375000.0,,,,,
0.511,2891379,-11704.42,28607.53,375000.0,375000.0,301021.75,237313.07,375000.0,375000.0,,,,,
0.512,2891380,-11706.09,28607.13,375000.0,375000.0,301022.77,237321.15,375000.0,375000.0,,,,,
0.513,2891381,-11706.35,28606.85,375000.0,375000.0,301025.97,237327.55,375000.0,375000.0,,,,,
0.514,2891382,-11705.65,28606.5,375000.0,375000.0,301030.34,237330.38,375000.0,375000.0,,,,,
0.515,2891383,-11704.43,28606.49,375000.0,375000.0,301034.98,237329.92,375000.0,375000.0,,,,,
0.516,2891384,-11702.91,28607.63,375000.0,375000.0,301039.14,237328.2,375000.0,375000.0,,,,,
0.517,2891385,-11701.02,28610.61,375000.0,375000.0,301041.97,237327.69,375000.0,375000.0,,,,,
0.518,2891386,-11698.72,28615.39,375000.0,375000.0,301042.38,237329.79,375000.0,375000.0,,,,,
0.519,2891387,-11696.22,28620.96,375000.0,375000.0,301039.31,237334.02,375000.0,375000.0,,,,,
0.520,2891388,-11694.1,28625.52,375000.0,375000.0,301032.3,237338.21,375000.0,375000.0,,,,,
0.521,2891389,-11693.16,28627.23,375000.0,375000.0,301022.12,237339.62,375000.0,375000.0,,,,,
0.522,2891390,-11694.02,28625.05,375000.0,375000.0,301010.9,237336.27,375000.0,375000.0,,,,,
0.523,2891391,-11696.8,28619.28,375000.0,375000.0,301001.52,237328.01,375000.0,375000.0,,,,,
0.524,2891392,-11700.93,28611.53,375000.0,375000.0,300996.37,237316.51,375000.0,375000.0,,,,,
0.525,2891393,-11705.39,28604.01,375000.0,375000.0,300996.15,237304.57,375000.0,375000.0,,,,,
0.526,2891394,-11709.12,28598.62,375000.0,375000.0,300999.24,237294.8,375000.0,375000.0,,,,,
0.527,2891395,-11711.46,28596.21,375000.0,375000.0,301002.32,237288.59,375000.0,375000.0,,,,,
0.528,2891396,-11712.29,28596.4,375000.0,375000.0,301001.94,237285.72,375000.0,375000.0,,,,,
0.529,2891397,-11711.92,28598.08,375000.0,375000.0,300996.52,237284.89,375000.0,375000.0,,,,,
0.530,2891398,-11710.69,28600.12,375000.0,375000.0,300987.64,237284.69,375000.0,375000.0,,,,,
0.531,2891399,-11708.61,28602.13,375000.0,375000.0,300979.92,237284.71,375000.0,375000.0,,,,,
0.532,2891400,-11705.35,28604.5,375000.0,375000.0,300979.26,237286.0,375000.0,375000.0,,,,,
0.533,2891401,-11700.47,28608.06,375000.0,375000.0,300990.21,237290.65,375000.0,375000.0,,,,,
0.534,2891402,-11693.92,28613.32,375000.0,375000.0,301013.43,237300.56,375000.0,375000.0,,,,,
0.535,2891403,-11686.47,28619.85,375000.0,375000.0,301044.62,237315.99,375000.0,375000.0,,,,,
0.536,2891404,-11679.66,28626.25,375000.0,375000.0,301075.57,237334.64,375000.0,375000.0,,,,,
0.537,2891405,-11675.45,28630.62,375000.0,375000.0,301096.95,237351.78,375000.0,375000.0,,,,,
0.538,2891406,-11675.43,28631.39,375000.0,375000.0,301101.86,237361.69,375000.0,375000.0,,,,,
0.539,2891407,-11680.14,28628.06,375000.0,375000.0,301088.56,237359.89,375000.0,375000.0,,,,,
0.540,2891408,-11688.78,28621.37,375000.0,375000.0,301061.3,237345.23,375000.0,375000.0,,,,,
0.541,2891409,-11699.41,28613.0,375000.0,375000.0,301028.73,237320.89,375000.0,375000.0,,,,,
0.542,2891410,-11709.69,28604.75,375000.0,375000.0,301000.59,237293.66,375000.0,375000.0,,,,,
0.543,2891411,-11717.63,28597.89,375000.0,375000.0,300984.17,237271.54,375000.0,375000.0,,,,,
0.544,2891412,-11722.2,28592.78,375000.0,375000.0,300981.74,237260.81,375000.0,375000.0,,,,,
0.545,2891413,-11723.44,28589.12,375000.0,375000.0,300990.23,237263.54,375000.0,375000.0,,,,,
0.546,2891414,-11722.08,28586.44,375000.0,375000.0,301002.97,237276.93,375000.0,375000.0,,,,,
0.547,2891415,-11719.04,28584.69,375000.0,375000.0,301012.72,237294.65,375000.0,375000.0,,,,,
0.548,2891416,-11714.92,28584.34,375000.0,375000.0,301014.54,237309.66,375000.0,375000.0,,,,,
0.549,2891417,-11709.85,28586.16,375000.0,375000.0,301007.41,237317.07,375000.0,375000.0,,,,,
0.550,2891418,-11703.77,28590.62,375000.0,375000.0,300994.04,237315.96,375000.0,375000.0,,,,,
0.551,2891419,-11696.73,28597.39,375000.0,375000.0,300979.15,237309.04,375000.0,375000.0,,,,,
0.552,2891420,-11689.24,28605.17,375000.0,375000.0,300967.24,237300.86,375000.0,375000.0,,,,,
0.553,2891421,-11682.29,28612.0,375000.0,375000.0,300960.81,237295.19,375000.0,375000.0,,,,,
0.554,2891422,-11677.13,28615.97,375000.0,375000.0,300959.88,237293.36,375000.0,375000.0,,,,,
0.555,2891423,-11674.77,28615.9,375000.0,375000.0,300962.59,237294.09,375000.0,375000.0,,,,,
0.556,2891424,-11675.63,28611.79,375000.0,375000.0,300966.6,237294.82,375000.0,375000.0,,,,,
0.557,2891425,-11679.36,28604.76,375000.0,375000.0,300970.32,237293.66,375000.0,375000.0,,,,,
0.558,2891426,-11684.98,28596.61,375000.0,375000.0,300973.35,237290.6,375000.0,375000.0,,,,,
0.559,2891427,-11691.23,28589.16,375000.0,375000.0,300976.23,237287.4,375000.0,375000.0,,,,,
0.560,2891428,-11696.9,28583.7,375000.0,375000.0,300979.56,237286.09,375000.0,375000.0,,,,,
0.561,2891429,-11701.16,28580.73,375000.0,375000.0,300983.32,237287.36,375000.0,375000.0,,,,,
0.562,2891430,-11703.55,28580.02,375000.0,375000.0,300986.74,237289.79,375000.0,375000.0,,,,,
0.563,2891431,-11703.94,28580.97,375000.0,375000.0,300988.87,237290.68,375000.0,375000.0,,,,,
0.564,2891432,-11702.3,28582.96,375000.0,375000.0,300989.38,237288.14,375000.0,375000.0,,,,,
0.565,2891433,-11698.65,28585.66,375000.0,375000.0,300989.24,237283.02,375000.0,375000.0,,,,,
0.566,2891434,-11693.06,28589.07,375000.0,375000.0,300990.59,237279.46,375000.0,375000.0,,,,,
0.567,2891435,-11685.75,28593.37,375000.0,375000.0,300995.94,237283.26,375000.0,375000.0,,,,,
0.568,2891436,-11677.27,28598.59,375000.0,375000.0,301006.86,237298.7,375000.0,375000.0,,,,,
0.569,2891437,-11668.56,28604.37,375000.0,375000.0,301022.84,237325.42,375000.0,375000.0,,,,,
0.570,2891438,-11660.89,28609.76,375000.0,375000.0,301040.96,237357.2,375000.0,375000.0,,,,,
0.571,2891439,-11655.54,28613.42,375000.0,375000.0,301056.55,237383.68,375000.0,375000.0,,,,,
0.572,2891440,-11653.48,28614.0,375000.0,375000.0,301064.73,237394.5,375000.0,375000.0,,,,,
0.573,2891441,-11654.95,28610.72,375000.0,375000.0,301062.28,237383.99,375000.0,375000.0,,,,,
0.574,2891442,-11659.32,28603.84,375000.0,375000.0,301048.98,237354.08,375000.0,375000.0,,,,,
0.575,2891443,-11665.12,28594.87,375000.0,375000.0,301028.04,237314.02,375000.0,375000.0,,,,,
0.576,2891444,-11670.47,28586.18,375000.0,375000.0,301005.27,237276.63,375000.0,375000.0,,,,,
0.577,2891445,-11673.66,28580.24,375000.0,375000.0,300987.24,237253.11,375000.0,375000.0,,,,,
0.578,2891446,-11673.74,28578.73,375000.0,375000.0,300979.2,237248.55,375000.0,375000.0,,,,,
0.579,2891447,-11670.85,28581.8,375000.0,375000.0,300983.22,237260.46,375000.0,375000.0,,,,,
0.580,2891448,-11666.13,28587.97,375000.0,375000.0,300997.53,237280.66,375000.0,375000.0,,,,,
0.581,2891449,-11661.26,28594.74,375000.0,375000.0,301017.09,237299.46,375000.0,375000.0,,,,,
0.582,2891450,-11657.8,28599.64,375000.0,375000.0,301035.32,237310.06,375000.0,375000.0,,,,,
0.583,2891451,-11656.5,28601.24,375000.0,375000.0,301046.39,237310.87,375000.0,375000.0,,,,,
0.584,2891452,-11657.11,28599.74,375000.0,375000.0,301047.35,237305.18,375000.0,375000.0,,,,,
0.585,2891453,-11658.56,28596.64,375000.0,375000.0,301039.1,237298.43,375000.0,375000.0,,,,,
0.586,2891454,-11659.58,28593.87,375000.0,375000.0,301026.08,237295.1,375000.0,375000.0,,,,,
0.587,2891455,-11659.4,28592.67,375000.0,375000.0,301014.53,237296.65,375000.0,375000.0,,,,,
0.588,2891456,-11658.15,28592.87,375000.0,375000.0,301010.07,237301.49,375000.0,375000.0,,,,,
0.589,2891457,-11656.83,28593.01,375000.0,375000.0,301015.46,237306.67,375000.0,375000.0,,,,,
0.590,2891458,-11656.78,28591.09,375000.0,375000.0,301029.45,237309.88,375000.0,375000.0,,,,,
0.591,2891459,-11659.07,28585.8,375000.0,375000.0,301047.15,237310.61,375000.0,375000.0,,,,,
0.592,2891460,-11663.87,28577.25,375000.0,375000.0,301061.84,237309.86,375000.0,375000.0,,,,,
0.593,2891461,-11670.42,28567.16,375000.0,375000.0,301067.49,237308.89,375000.0,375000.0,,,,,
0.594,2891462,-11677.33,28558.02,375000.0,375000.0,301060.98,237307.98,375000.0,375000.0,,,,,
0.595,2891463,-11683.19,28552.08,375000.0,375000.0,301043.26,237306.14,375000.0,375000.0,,,,,
0.596,2891464,-11687.04,28550.33,375000.0,375000.0,301018.84,237302.07,375000.0,375000.0,,,,,
0.597,2891465,-11688.57,28552.31,375000.0,375000.0,300994.17,237295.59,375000.0,375000.0,,,,,
0.598,2891466,-11687.91,28556.59,375000.0,375000.0,300975.42,237288.62,375000.0,375000.0,,,,,
0.599,2891467,-11685.27,28561.69,375000.0,375000.0,300966.57,237284.73,375000.0,375000.0,,,,,
0.600,2891468,-11680.71,28566.84,375000.0,375000.0,300968.58,237287.48,375000.0,375000.0,,,,,
0.601,2891469,-11674.24,28572.12,375000.0,375000.0,300979.64,237298.28,375000.0,375000.0,,,,,
0.602,2891470,-11666.18,28577.96,375000.0,375000.0,300996.19,237315.17,375000.0,375000.0,,,,,
0.603,2891471,-11657.54,28584.32,375000.0,375000.0,301014.27,237333.3,375000.0,375000.0,,,,,
0.604,2891472,-11650.14,28590.18,375000.0,375000.0,301030.42,237346.91,375000.0,375000.0,,,,,
0.605,2891473,-11646.12,28593.67,375000.0,375000.0,301042.2,237352.0,375000.0,375000.0,,,,,
0.606,2891474,-11647.16,28592.93,375000.0,375000.0,301048.15,237348.08,375000.0,375000.0,,,,,
0.607,2891475,-11653.65,28587.14,375000.0,375000.0,301047.69,237338.21,375000.0,375000.0,,,,,
0.608,2891476,-11664.23,28577.23,375000.0,375000.0,301041.08,237327.26,375000.0,375000.0,,,,,
0.609,2891477,-11676.18,28565.74,375000.0,375000.0,301029.48,237319.31,375000.0,375000.0,,,,,
0.610,2891478,-11686.33,28555.8,375000.0,375000.0,301015.05,237315.74,375000.0,375000.0,,,,,
0.611,2891479,-11692.3,28549.85,375000.0,375000.0,301000.68,237314.91,375000.0,375000.0,,,,,
0.612,2891480,-11693.34,28548.64,375000.0,375000.0,300989.44,237313.57,375000.0,375000.0,,,,,
0.613,2891481,-11690.48,28551.05,375000.0,375000.0,300983.7,237309.07,375000.0,375000.0,,,,,
0.614,2891482,-11685.89,28554.86,375000.0,375000.0,300984.42,237301.08,375000.0,375000.0,,,,,
0.615,2891483,-11681.77,28557.98,375000.0,375000.0,300990.82,237291.82,375000.0,375000.0,,,,,
0.616,2891484,-11679.38,28559.44,375000.0,375000.0,301000.67,237284.8,375000.0,375000.0,,,,,
0.617,2891485,-11678.71,28559.64,375000.0,375000.0,301011.15,237282.69,375000.0,375000.0,,,,,
0.618,2891486,-11678.8,28559.8,375000.0,375000.0,301019.74,237285.73,375000.0,375000.0,,,,,
0.619,2891487,-11678.53,28560.94,375000.0,375000.0,301024.97,237291.53,375000.0,375000.0,,,,,
0.620,2891488,-11677.42,28563.1,375000.0,375000.0,301026.54,237296.36,375000.0,375000.0,,,,,
0.621,2891489,-11675.94,28565.16,375000.0,375000.0,301025.05,237297.19,375000.0,375000.0,,,,,
0.622,2891490,-11675.23,28565.48,375000.0,375000.0,301021.38,237293.21,375000.0,375000.0,,,,,
0.623,2891491,-11676.4,28562.88,375000.0,375000.0,301016.3,237286.15,375000.0,375000.0,,,,,
0.624,2891492,-11679.83,28557.38,375000.0,375000.0,301010.29,237279.14,375000.0,375000.0,,,,,
0.625,2891493,-11684.9,28550.31,375000.0,375000.0,301003.75,237274.9,375000.0,375000.0,,,,,
0.626,2891494,-11690.23,28543.73,375000.0,375000.0,300997.3,237274.32,375000.0,375000.0,,,,,
0.627,2891495,-11694.31,28539.44,375000.0,375000.0,300991.84,237276.3,375000.0,375000.0,,,,,
0.628,2891496,-11696.13,28538.29,375000.0,375000.0,300988.43,237278.65,375000.0,375000.0,,,,,
0.629,2891497,-11695.48,28539.98,375000.0,375000.0,300987.84,237279.74,375000.0,375000.0,,,,,
0.630,2891498,-11692.83,28543.49,375000.0,375000.0,300990.19,237279.53,375000.0,375000.0,,,,,
0.631,2891499,-11688.97,28547.83,375000.0,375000.0,300994.74,237279.56,375000.0,375000.0,,,,,
0.632,2891500,-11684.6,28552.49,375000.0,375000.0,301000.13,237281.79,375000.0,375000.0,,,,,
0.633,2891501,-11680.18,28557.45,375000.0,375000.0,301004.92,237287.07,375000.0,375000.0,,,,,
0.634,2891502,-11676.08,28562.72,375000.0,375000.0,301008.06,237294.25,375000.0,375000.0,,,,,
0.635,2891503,-11672.79,28567.83,375000.0,375000.0,301009.28,237300.54,375000.0,375000.0,,,,,
0.636,2891504,-11671.03,28571.65,375000.0,375000.0,301009.06,237303.04,375000.0,375000.0,,,,,
0.637,2891505,-11671.48,28572.82,375000.0,375000.0,301008.29,237300.47,375000.0,375000.0,,,,,
0.638,2891506,-11674.4,28570.49,375000.0,375000.0,301007.83,237294.24,375000.0,375000.0,,,,,
0.639,2891507,-11679.26,28565.02,375000.0,375000.0,301008.22,237287.99,375000.0,375000.0,,,,,
0.640,2891508,-11684.73,28558.08,375000.0,375000.0,301009.57,237285.83,375000.0,375000.0,,,,,
0.641,2891509,-11689.14,28552.05,375000.0,375000.0,301011.68,237290.13,375000.0,375000.0,,,,,
0.642,2891510,-11691.13,28548.94,375000.0,375000.0,301014.25,237300.19,375000.0,375000.0,,,,,
0.643,2891511,-11690.37,28549.41,375000.0,375000.0,301017.01,237312.38,375000.0,375000.0,,,,,
0.644,2891512,-11687.67,28552.53,375000.0,375000.0,301019.78,237321.9,375000.0,375000.0,,,,,
0.645,2891513,-11684.6,28556.27,375000.0,375000.0,301022.39,237325.22,375000.0,375000.0,,,,,
0.646,2891514,-11682.64,28558.67,375000.0,375000.0,301024.62,237321.86,375000.0,375000.0,,,,,
0.647,2891515,-11682.38,28558.88,375000.0,375000.0,301026.27,237314.6,375000.0,375000.0,,,,,
0.648,2891516,-11683.22,28557.62,375000.0,375000.0,301027.25,237307.98,375000.0,375000.0,,,,,
0.649,2891517,-11683.68,28556.65,375000.0,375000.0,301027.69,237305.97,375000.0,375000.0,,,,,
0.650,2891518,-11682.23,28557.74,375000.0,375000.0,301027.96,237309.95,375000.0,375000.0,,,,,
0.651,2891519,-11678.22,28561.49,375000.0,375000.0,301028.56,237318.08,375000.0,375000.0,,,,,
0.652,2891520,-11672.4,28566.88,375000.0,375000.0,301029.86,237326.46,375000.0,375000.0,,,,,
0.653,2891521,-11666.66,28571.69,375000.0,375000.0,301031.97,237331.21,375000.0,375000.0,,,,,
0.654,2891522,-11663.28,28573.58,375000.0,375000.0,301034.67,237330.48,375000.0,375000.0,,,,,
0.655,2891523,-11663.89,28571.34,375000.0,375000.0,301037.5,237325.27,375000.0,375000.0,,,,,
0.656,2891524,-11668.76,28565.45,375000.0,375000.0,301039.94,237318.66,375000.0,375000.0,,,,,
0.657,2891525,-11676.72,28557.86,375000.0,375000.0,301041.62,237314.03,375000.0,375000.0,,,,,
0.658,2891526,-11685.66,28551.0,375000.0,375000.0,301042.28,237313.34,375000.0,375000.0,,,,,
0.659,2891527,-11693.42,28546.61,375000.0,375000.0,301041.82,237316.28,375000.0,375000.0,,,,,
0.660,2891528,-11698.57,28545.03,375000.0,375000.0,301040.18,237320.97,375000.0,375000.0,,,,,
0.661,2891529,-11700.7,28545.29,375000.0,375000.0,301037.38,237325.3,375000.0,375000.0,,,,,
0.662,2891530,-11700.31,28545.92,375000.0,375000.0,301033.69,237328.38,375000.0,375000.0,,,,,
0.663,2891531,-11698.26,28545.88,375000.0,375000.0,301029.76,237330.93,375000.0,375000.0,,,,,
0.664,2891532,-11695.29,28545.26,375000.0,375000.0,301026.66,237334.49,375000.0,375000.0,,,,,
0.665,2891533,-11691.72,28545.13,375000.0,375000.0,301025.65,237339.98,375000.0,375000.0,,,,,
0.666,2891534,-11687.58,28546.84,375000.0,375000.0,301027.73,237346.56,375000.0,375000.0,,,,,
0.667,2891535,-11682.89,28551.12,375000.0,375000.0,301033.0,237351.61,375000.0,375000.0,,,,,
0.668,2891536,-11677.96,28557.42,375000.0,375000.0,301040.34,237351.98,375000.0,375000.0,,,,,
0.669,2891537,-11673.49,28563.98,375000.0,375000.0,301047.47,237345.79,375000.0,375000.0,,,,,
0.670,2891538,-11670.46,28568.5,375000.0,375000.0,301051.58,237333.8,375000.0,375000.0,,,,,
0.671,2891539,-11669.77,28569.11,375000.0,375000.0,301050.3,237319.35,375000.0,375000.0,,,,,
0.672,2891540,-11671.96,28565.13,375000.0,375000.0,301042.62,237306.88,375000.0,375000.0,,,,,
0.673,2891541,-11676.95,28557.32,375000.0,375000.0,301029.45,237299.73,375000.0,375000.0,,,,,
0.674,2891542,-11684.07,28547.53,375000.0,375000.0,301013.45,237298.56,375000.0,375000.0,,,,,
0.675,2891543,-11692.13,28537.95,375000.0,375000.0,300998.24,237301.11,375000.0,375000.0,,,,,
0.676,2891544,-11699.72,28530.44,375000.0,375000.0,300987.28,237303.72,375000.0,375000.0,,,,,
0.677,2891545,-11705.44,28525.99,375000.0,375000.0,300982.79,237303.49,375000.0,375000.0,,,,,
0.678,2891546,-11708.2,28524.77,375000.0,375000.0,300985.13,237300.01,375000.0,375000.0,,,,,
0.679,2891547,-11707.51,28526.3,375000.0,375000.0,300992.87,237295.48,375000.0,375000.0,,,,,
0.680,2891548,-11703.6,28529.81,375000.0,375000.0,301003.41,237293.26,375000.0,375000.0,,,,,
0.681,2891549,-11697.42,28534.49,375000.0,375000.0,301013.87,237295.66,375000.0,375000.0,,,,,
0.682,2891550,-11690.43,28539.6,375000.0,375000.0,301022.06,237302.43,375000.0,375000.0,,,,,
0.683,2891551,-11684.17,28544.5,375000.0,375000.0,301027.01,237310.83,375000.0,375000.0,,,,,
0.684,2891552,-11679.77,28548.67,375000.0,375000.0,301029.1,237317.37,375000.0,375000.0,,,,,
0.685,2891553,-11677.65,28551.77,375000.0,375000.0,301029.74,237320.12,375000.0,375000.0,,,,,
0.686,2891554,-11677.39,28553.64,375000.0,375000.0,301030.73,237320.15,375000.0,375000.0,,,,,
0.687,2891555,-11678.12,28554.38,375000.0,375000.0,301033.44,237320.97,375000.0,375000.0,,,,,
0.688,2891556,-11678.95,28554.15,375000.0,375000.0,301038.22,237326.2,375000.0,375000.0,,,,,
0.689,2891557,-11679.5,28553.13,375000.0,375000.0,301044.1,237336.8,375000.0,375000.0,,,,,
0.690,2891558,-11680.03,28551.31,375000.0,375000.0,301049.07,237349.58,375000.0,375000.0,,,,,
0.691,2891559,-11681.28,28548.57,375000.0,375000.0,301050.7,237358.16,375000.0,375000.0,,,,,
0.692,2891560,-11683.97,28544.85,375000.0,375000.0,301047.19,237356.11,375000.0,375000.0,,,,,
0.693,2891561,-11688.25,28540.34,375000.0,375000.0,301038.24,237340.76,375000.0,375000.0,,,,,
0.694,2891562,-11693.42,28535.66,375000.0,375000.0,301025.52,237315.38,375000.0,375000.0,,,,,
0.695,2891563,-11698.1,28531.76,375000.0,375000.0,301012.29,237288.38,375000.0,375000.0,,,,,
0.696,2891564,-11700.71,28529.68,375000.0,375000.0,301002.42,237269.7,375000.0,375000.0,,,,,
0.697,2891565,-11700.13,28530.15,375000.0,375000.0,300998.93,237266.04,375000.0,375000.0,,,,,
0.698,2891566,-11696.16,28533.27,375000.0,375000.0,301002.79,237277.56,375000.0,375000.0,,,,,
0.699,2891567,-11689.63,28538.42,375000.0,375000.0,301012.49,237297.83,375000.0,375000.0,,,,,
0.700,2891568,-11682.08,28544.44,375000.0,375000.0,301024.61,237317.07,375000.0,375000.0,,,,,
0.701,2891569,-11675.24,28550.02,375000.0,375000.0,301035.2,237327.11,375000.0,375000.0,,,,,
0.702,2891570,-11670.45,28554.09,375000.0,375000.0,301041.42,237325.27,375000.0,375000.0,,,,,
0.703,2891571,-11668.42,28556.13,375000.0,375000.0,301042.57,237315.15,375000.0,375000.0,,,,,
0.704,2891572,-11669.14,28556.17,375000.0,375000.0,301040.18,237304.08,375000.0,375000.0,,,,,
0.705,2891573,-11672.15,28554.65,375000.0,375000.0,301036.95,237298.69,375000.0,375000.0,,,,,
0.706,2891574,-11676.67,28552.2,375000.0,375000.0,301035.23,237301.27,375000.0,375000.0,,,,,
0.707,2891575,-11681.85,28549.37,375000.0,375000.0,301035.79,237309.0,375000.0,375000.0,,,,,
0.708,2891576,-11686.83,28546.6,375000.0,375000.0,301037.49,237316.27,375000.0,375000.0,,,,,
0.709,2891577,-11690.8,28544.19,375000.0,375000.0,301038.1,237318.67,375000.0,375000.0,,,,,
0.710,2891578,-11693.11,28542.36,375000.0,375000.0,301035.84,237315.95,375000.0,375000.0,,,,,
0.711,2891579,-11693.49,28541.27,375000.0,375000.0,301030.73,237312.2,375000.0,375000.0,,,,,
0.712,2891580,-11692.1,28541.03,375000.0,375000.0,301025.07,237312.98,375000.0,375000.0,,,,,
0.713,2891581,-11689.56,28541.62,375000.0,375000.0,301022.7,237321.27,375000.0,375000.0,,,,,
0.714,2891582,-11686.75,28542.94,375000.0,375000.0,301027.26,237334.89,375000.0,375000.0,,,,,
0.715,2891583,-11684.41,28544.79,375000.0,375000.0,301040.45,237347.22,375000.0,375000.0,,,,,
0.716,2891584,-11682.87,28546.95,375000.0,375000.0,301061.09,237351.02,375000.0,375000.0,,,,,
0.717,2891585,-11681.92,28549.2,375000.0,375000.0,301085.33,237343.23,375000.0,375000.0,,,,,
0.718,2891586,-11681.02,28551.38,375000.0,375000.0,301108.1,237327.62,375000.0,375000.0,,,,,
0.719,2891587,-11679.74,28553.28,375000.0,375000.0,301124.81,237313.34,375000.0,375000.0,,,,,
0.720,2891588,-11678.11,28554.58,375000.0,375000.0,301132.66,237309.92,375000.0,375000.0,,,,,
0.721,2891589,-11676.82,28554.89,375000.0,375000.0,301130.87,237321.31,375000.0,375000.0,,,,,
0.722,2891590,-11676.97,28553.72,375000.0,375000.0,301120.11,237342.64,375000.0,375000.0,,,,,
0.723,2891591,-11679.51,28550.77,375000.0,375000.0,301101.61,237362.07,375000.0,375000.0,,,,,
0.724,2891592,-11684.68,28546.03,375000.0,375000.0,301076.73,237367.17,375000.0,375000.0,,,,,
0.725,2891593,-11691.68,28540.0,375000.0,375000.0,301047.3,237352.61,375000.0,375000.0,,,,,
0.726,2891594,-11698.85,28533.6,375000.0,375000.0,301016.46,237324.66,375000.0,375000.0,,,,,
0.727,2891595,-11704.21,28528.06,375000.0,375000.0,300989.13,237299.65,375000.0,375000.0,,,,,
0.728,2891596,-11706.27,28524.55,375000.0,375000.0,300971.36,237296.26,375000.0,375000.0,,,,,
0.729,2891597,-11704.57,28523.89,375000.0,375000.0,300968.47,237325.46,375000.0,375000.0,,,,,
0.730,2891598,-11699.86,28526.26,375000.0,375000.0,300982.41,237383.32,375000.0,375000.0,,,,,
0.731,2891599,-11693.71,28531.13,375000.0,375000.0,301009.87,237450.79,375000.0,375000.0,,,,,
0.732,2891600,-11687.82,28537.45,375000.0,375000.0,301042.29,237501.22,375000.0,375000.0,,,,,
0.733,2891601,-11683.41,28543.86,375000.0,375000.0,301068.37,237512.26,375000.0,375000.0,,,,,
0.734,2891602,-11680.82,28549.1,375000.0,375000.0,301078.24,237476.52,375000.0,375000.0,,,,,
0.735,2891603,-11679.66,28552.33,375000.0,375000.0,301067.76,237405.47,375000.0,375000.0,,,,,
0.736,2891604,-11679.22,28553.26,375000.0,375000.0,301040.74,237324.69,375000.0,375000.0,,,,,
0.737,2891605,-11678.96,28552.2,375000.0,375000.0,301007.9,237262.68,375000.0,375000.0,,,,,
0.738,2891606,-11678.88,28549.82,375000.0,375000.0,300982.64,237238.5,375000.0,375000.0,,,,,
0.739,2891607,-11679.45,28546.91,375000.0,375000.0,300975.48,237254.24,375000.0,375000.0,,,,,
0.740,2891608,-11681.26,28544.1,375000.0,375000.0,300989.4,237295.58,375000.0,375000.0,,,,,
0.741,2891609,-11684.61,28541.71,375000.0,375000.0,301018.47,237339.61,375000.0,375000.0,,,,,
0.742,2891610,-11689.24,28539.73,375000.0,375000.0,301050.26,237365.83,375000.0,375000.0,,,,,
0.743,2891611,-11694.29,28537.99,375000.0,375000.0,301071.16,237364.72,375000.0,375000.0,,,,,
0.744,2891612,-11698.62,28536.39,375000.0,375000.0,301072.15,237340.21,375000.0,375000.0,,,,,
0.745,2891613,-11701.26,28534.99,375000.0,375000.0,301052.38,237305.56,375000.0,375000.0,,,,,
0.746,2891614,-11701.71,28534.14,375000.0,375000.0,301019.23,237275.53,375000.0,375000.0,,,,,
0.747,2891615,-11700.12,28534.28,375000.0,375000.0,300984.71,237259.23,375000.0,375000.0,,,,,
0.748,2891616,-11697.09,28535.75,375000.0,375000.0,300960.24,237257.05,375000.0,375000.0,,,,,
0.749,2891617,-11693.4,28538.61,375000.0,375000.0,300952.11,237262.67,375000.0,375000.0,,,,,
0.750,2891618,-11689.68,28542.51,375000.0,375000.0,300959.58,237268.12,375000.0,375000.0,,,,,
0.751,2891619,-11686.26,28546.81,375000.0,375000.0,300976.3,237268.76,375000.0,375000.0,,,,,
0.752,2891620,-11683.21,28550.75,375000.0,375000.0,300993.9,237265.37,375000.0,375000.0,,,,,
0.753,2891621,-11680.53,28553.66,375000.0,375000.0,301005.94,237262.62,375000.0,375000.0,,,,,
0.754,2891622,-11678.39,28555.14,375000.0,375000.0,301010.34,237265.39,375000.0,375000.0,,,,,
0.755,2891623,-11677.15,28555.11,375000.0,375000.0,301009.22,237275.32,375000.0,375000.0,,,,,
0.756,2891624,-11677.3,28553.68,375000.0,375000.0,301006.89,237289.73,375000.0,375000.0,,,,,
0.757,2891625,-11679.15,28551.13,375000.0,375000.0,301006.99,237303.3,375000.0,375000.0,,,,,
0.758,2891626,-11682.59,28547.79,375000.0,375000.0,301010.57,237311.18,375000.0,375000.0,,,,,
0.759,2891627,-11686.95,28544.04,375000.0,375000.0,301015.89,237311.69,375000.0,375000.0,,,,,
0.760,2891628,-11691.1,28540.39,375000.0,375000.0,301019.83,237306.82,375000.0,375000.0,,,,,
0.761,2891629,-11693.86,28537.38,375000.0,375000.0,301019.9,237300.67,375000.0,375000.0,,,,,
0.762,2891630,-11694.39,28535.59,375000.0,375000.0,301015.72,237296.84,375000.0,375000.0,,,,,
0.763,2891631,-11692.54,28535.4,375000.0,375000.0,301009.2,237296.47,375000.0,375000.0,,,,,
0.764,2891632,-11688.94,28536.89,375000.0,375000.0,301003.45,237298.16,375000.0,375000.0,,,,,
0.765,2891633,-11684.74,28539.74,375000.0,375000.0,301001.14,237299.47,375000.0,375000.0,,,,,
0.766,2891634,-11681.1,28543.32,375000.0,375000.0,301003.31,237299.02,375000.0,375000.0,,,,,
0.767,2891635,-11678.78,28546.91,375000.0,375000.0,301009.12,237297.59,375000.0,375000.0,,,,,
0.768,2891636,-11677.85,28549.89,375000.0,375000.0,301016.59,237297.67,375000.0,375000.0,,,,,
0.769,2891637,-11677.78,28551.89,375000.0,375000.0,301023.71,237301.7,375000.0,375000.0,,,,,
0.770,2891638,-11677.9,28552.78,375000.0,375000.0,301029.4,237310.21,375000.0,375000.0,,,,,
0.771,2891639,-11677.79,28552.55,375000.0,375000.0,301033.55,237321.09,375000.0,375000.0,,,,,
0.772,2891640,-11677.62,28551.2,375000.0,375000.0,301036.6,237330.56,375000.0,375000.0,,,,,
0.773,2891641,-11678.09,28548.67,375000.0,375000.0,301038.8,237335.17,375000.0,375000.0,,,,,
0.774,2891642,-11679.99,28544.99,375000.0,375000.0,301039.81,237333.67,375000.0,375000.0,,,,,
0.775,2891643,-11683.67,28540.39,375000.0,375000.0,301038.91,237327.66,375000.0,375000.0,,,,,
0.776,2891644,-11688.66,28535.49,375000.0,375000.0,301035.62,237320.53,375000.0,375000.0,,,,,
0.777,2891645,-11693.69,28531.2,375000.0,375000.0,301030.39,237315.62,375000.0,375000.0,,,,,
0.778,2891646,-11697.12,28528.49,375000.0,375000.0,301024.71,237314.47,375000.0,375000.0,,,,,
0.779,2891647,-11697.65,28528.03,375000.0,375000.0,301020.68,237316.34,375000.0,375000.0,,,,,
0.780,2891648,-11694.92,28529.89,375000.0,375000.0,301020.18,237319.19,375000.0,375000.0,,,,,
0.781,2891649,-11689.7,28533.54,375000.0,375000.0,301023.96,237321.23,375000.0,375000.0,,,,,
0.782,2891650,-11683.55,28538.03,375000.0,375000.0,301031.33,237322.21,375000.0,375000.0,,,,,
0.783,2891651,-11678.18,28542.4,375000.0,375000.0,301040.44,237323.4,375000.0,375000.0,,,,,
0.784,2891652,-11674.7,28546.04,375000.0,375000.0,301049.05,237326.52,375000.0,375000.0,,,,,
0.785,2891653,-11673.29,28548.81,375000.0,375000.0,301055.39,237332.21,375000.0,375000.0,,,,,
0.786,2891654,-11673.3,28550.88,375000.0,375000.0,301058.65,237339.17,375000.0,375000.0,,,,,
0.787,2891655,-11673.84,28552.35,375000.0,375000.0,301058.94,237344.62,375000.0,375000.0,,,,,
0.788,2891656,-11674.39,28552.98,375000.0,375000.0,301056.91,237345.8,375000.0,375000.0,,,,,
0.789,2891657,-11675.14,28552.15,375000.0,375000.0,301053.2,237341.55,375000.0,375000.0,,,,,
0.790,2891658,-11676.88,28549.16,375000.0,375000.0,301048.18,237333.18,375000.0,375000.0,,,,,
0.791,2891659,-11680.38,28543.71,375000.0,375000.0,301042.0,237323.8,375000.0,375000.0,,,,,
0.792,2891660,-11685.79,28536.42,375000.0,375000.0,301034.9,237316.67,375000.0,375000.0,,,,,
0.793,2891661,-11692.2,28528.84,375000.0,375000.0,301027.46,237313.54,375000.0,375000.0,,,,,
0.794,2891662,-11697.85,28523.09,375000.0,375000.0,301020.72,237313.81,375000.0,375000.0,,,,,
0.795,2891663,-11700.76,28521.15,375000.0,375000.0,301015.85,237315.2,375000.0,375000.0,,,,,
0.796,2891664,-11699.66,28523.98,375000.0,375000.0,301013.76,237315.25,375000.0,375000.0,,,,,
0.797,2891665,-11694.59,28531.08,375000.0,375000.0,301014.63,237312.9,375000.0,375000.0,,,,,
0.798,2891666,-11686.98,28540.52,375000.0,375000.0,301017.8,237309.04,375000.0,375000.0,,,,,
0.799,2891667,-11679.17,28549.61,375000.0,375000.0,301021.87,237305.77,375000.0,375000.0,,,,,
0.800,2891668,-11673.42,28555.8,375000.0,375000.0,301025.24,237304.9,375000.0,375000.0,,,,,
0.801,2891669,-11671.15,28557.53,375000.0,375000.0,301026.57,237306.65,375000.0,375000.0,,,,,
0.802,2891670,-11672.41,28554.7,375000.0,375000.0,301025.29,237309.43,375000.0,375000.0,,,,,
0.803,2891671,-11676.12,28548.54,375000.0,375000.0,301021.76,237310.81,375000.0,375000.0,,,,,
0.804,2891672,-11680.62,28541.04,375000.0,375000.0,301017.18,237309.19,375000.0,375000.0,,,,,
0.805,2891673,-11684.46,28534.18,375000.0,375000.0,301013.21,237304.98,375000.0,375000.0,,,,,
0.806,2891674,-11686.88,28529.38,375000.0,375000.0,301011.44,237300.58,375000.0,375000.0,,,,,
0.807,2891675,-11687.95,28527.12,375000.0,375000.0,301012.83,237299.14,375000.0,375000.0,,,,,
0.808,2891676,-11688.28,28527.09,375000.0,375000.0,301017.36,237302.7,375000.0,375000.0,,,,,
0.809,2891677,-11688.58,28528.51,375000.0,375000.0,301024.04,237310.9,375000.0,375000.0,,,,,
0.810,2891678,-11689.28,28530.49,375000.0,375000.0,301031.23,237321.07,375000.0,375000.0,,,,,
0.811,2891679,-11690.36,28532.3,375000.0,375000.0,301037.35,237329.63,375000.0,375000.0,,,,,
0.812,2891680,-11691.52,28533.52,375000.0,375000.0,301041.47,237334.03,375000.0,375000.0,,,,,
0.813,2891681,-11692.35,28533.93,375000.0,375000.0,301043.77,237334.15,375000.0,375000.0,,,,,
0.814,2891682,-11692.56,28533.53,375000.0,375000.0,301045.38,237332.25,375000.0,375000.0,,,,,
0.815,2891683,-11692.04,28532.42,375000.0,375000.0,301047.78,237331.5,375000.0,375000.0,,,,,
0.816,2891684,-11690.77,28530.82,375000.0,375000.0,301051.93,237334.03,375000.0,375000.0,,,,,
0.817,2891685,-11688.77,28529.1,375000.0,375000.0,301057.58,237339.57,375000.0,375000.0,,,,,
0.818,2891686,-11686.01,28527.7,375000.0,375000.0,301063.18,237345.45,375000.0,375000.0,,,,,
0.819,2891687,-11682.51,28527.02,375000.0,375000.0,301066.47,237348.08,375000.0,375000.0,,,,,
0.820,2891688,-11678.43,28527.33,375000.0,375000.0,301065.54,237345.01,375000.0,375000.0,,,,,
0.821,2891689,-11674.15,28528.68,375000.0,375000.0,301059.86,237336.43,375000.0,375000.0,,,,,
0.822,2891690,-11670.12,28530.88,375000.0,375000.0,301050.73,237325.26,375000.0,375000.0,,,,,
0.823,2891691,-11666.78,28533.65,375000.0,375000.0,301040.93,237315.8,375000.0,375000.0,,,,,
0.824,2891692,-11664.25,28536.75,375000.0,375000.0,301033.58,237311.69,375000.0,375000.0,,,,,
0.825,2891693,-11662.31,28540.14,375000.0,375000.0,301030.92,237314.23,375000.0,375000.0,,,,,
0.826,2891694,-11660.38,28543.96,375000.0,375000.0,301033.37,237321.98,375000.0,375000.0,,,,,
0.827,2891695,-11657.77,28548.49,375000.0,375000.0,301039.52,237331.66,375000.0,375000.0,,,,,
0.828,2891696,-11653.95,28553.9,375000.0,375000.0,301046.83,237339.88,375000.0,375000.0,,,,,
0.829,2891697,-11648.7,28560.18,375000.0,375000.0,301052.85,237344.61,375000.0,375000.0,,,,,
0.830,2891698,-11642.19,28567.02,375000.0,375000.0,301056.16,237345.83,375000.0,375000.0,,,,,
0.831,2891699,-11634.8,28574.01,375000.0,375000.0,301056.81,237345.03,375000.0,375000.0,,,,,
0.832,2891700,-11626.92,28580.75,375000.0,375000.0,301056.02,237344.13,375000.0,375000.0,,,,,
0.833,2891701,-11618.83,28587.11,375000.0,375000.0,301055.42,237344.48,375000.0,375000.0,,,,,
0.834,2891702,-11610.59,28593.22,375000.0,375000.0,301056.31,237346.48,375000.0,375000.0,,,,,
0.835,2891703,-11602.22,28599.38,375000.0,375000.0,301059.28,237349.79,375000.0,375000.0,,,,,
0.836,2891704,-11593.85,28605.85,375000.0,375000.0,301064.15,237353.93,375000.0,375000.0,,,,,
0.837,2891705,-11585.81,28612.55,375000.0,375000.0,301070.26,237358.59,375000.0,375000.0,,,,,
0.838,2891706,-11578.61,28618.98,375000.0,375000.0,301076.69,237363.6,375000.0,375000.0,,,,,
0.839,2891707,-11572.79,28624.34,375000.0,375000.0,301082.32,237368.4,375000.0,375000.0,,,,,
0.840,2891708,-11568.67,28627.85,375000.0,375000.0,301085.89,237371.79,375000.0,375000.0,,,,,
0.841,2891709,-11566.18,28629.16,375000.0,375000.0,301086.18,237372.13,375000.0,375000.0,,,,,
0.842,2891710,-11564.79,28628.58,375000.0,375000.0,301082.36,237368.07,375000.0,375000.0,,,,,
0.843,2891711,-11563.64,28627.12,375000.0,375000.0,301074.63,237359.58,375000.0,375000.0,,,,,
0.844,2891712,-11561.82,28626.16,375000.0,375000.0,301064.57,237348.43,375000.0,375000.0,,,,,
0.845,2891713,-11558.61,28627.01,375000.0,375000.0,301054.95,237337.88,375000.0,375000.0,,,,,
0.846,2891714,-11553.71,28630.39,375000.0,375000.0,301048.85,237331.43,375000.0,375000.0,,,,,
0.847,2891715,-11547.23,28636.21,375000.0,375000.0,301048.38,237331.26,375000.0,375000.0,,,,,
0.848,2891716,-11539.66,28643.66,375000.0,375000.0,301053.59,237337.13,375000.0,375000.0,,,,,
0.849,2891717,-11531.63,28651.49,375000.0,375000.0,301062.18,237346.39,375000.0,375000.0,,,,,
0.850,2891718,-11523.72,28658.52,375000.0,375000.0,301070.33,237355.16,375000.0,375000.0,,,,,
0.851,2891719,-11516.39,28663.97,375000.0,375000.0,301074.45,237360.07,375000.0,375000.0,,,,,
0.852,2891720,-11509.91,28667.59,375000.0,375000.0,301072.81,237359.79,375000.0,375000.0,,,,,
0.853,2891721,-11504.48,28669.55,375000.0,375000.0,301066.46,237355.43,375000.0,375000.0,,,,,
0.854,2891722,-11500.28,28670.19,375000.0,375000.0,301058.69,237349.77,375000.0,375000.0,,,,,
0.855,2891723,-11497.54,28669.79,375000.0,375000.0,301053.34,237345.65,375000.0,375000.0,,,,,
0.856,2891724,-11496.53,28668.52,375000.0,375000.0,301052.83,237344.42,375000.0,375000.0,,,,,
0.857,2891725,-11497.39,28666.45,375000.0,375000.0,301056.83,237345.35,375000.0,375000.0,,,,,
0.858,2891726,-11500.05,28663.76,375000.0,375000.0,301062.45,237346.15,375000.0,375000.0,,,,,
0.859,2891727,-11504.09,28660.78,375000.0,375000.0,301065.72,237344.42,375000.0,375000.0,,,,,
0.860,2891728,-11508.69,28657.98,375000.0,375000.0,301063.68,237339.09,375000.0,375000.0,,,,,
0.861,2891729,-11512.82,28655.84,375000.0,375000.0,301056.0,237331.17,375000.0,375000.0,,,,,
0.862,2891730,-11515.38,28654.7,375000.0,375000.0,301045.15,237323.28,375000.0,375000.0,,,,,
0.863,2891731,-11515.51,28654.72,375000.0,375000.0,301035.2,237318.4,375000.0,375000.0,,,,,
0.864,2891732,-11512.78,28655.91,375000.0,375000.0,301029.8,237318.35,375000.0,375000.0,,,,,
0.865,2891733,-11507.34,28658.25,375000.0,375000.0,301030.49,237322.99,375000.0,375000.0,,,,,
0.866,2891734,-11499.88,28661.72,375000.0,375000.0,301036.19,237330.32,375000.0,375000.0,,,,,
0.867,2891735,-11491.53,28666.2,375000.0,375000.0,301044.06,237337.63,375000.0,375000.0,,,,,
0.868,2891736,-11483.62,28671.31,375000.0,375000.0,301051.12,237342.79,375000.0,375000.0,,,,,
0.869,2891737,-11477.47,28676.19,375000.0,375000.0,301055.73,237345.16,375000.0,375000.0,,,,,
0.870,2891738,-11474.17,28679.56,375000.0,375000.0,301058.04,237345.54,375000.0,375000.0,,,,,
0.871,2891739,-11474.34,28680.06,375000.0,375000.0,301059.23,237345.32,375000.0,375000.0,,,,,
0.872,2891740,-11478.06,28676.8,375000.0,375000.0,301060.2,237345.36,375000.0,375000.0,,,,,
0.873,2891741,-11484.74,28669.83,375000.0,375000.0,301060.49,237345.24,375000.0,375000.0,,,,,
0.874,2891742,-11493.22,28660.4,375000.0,375000.0,301058.25,237343.42,375000.0,375000.0,,,,,
0.875,2891743,-11501.97,28650.64,375000.0,375000.0,301051.33,237338.16,375000.0,375000.0,,,,,
0.876,2891744,-11509.42,28642.87,375000.0,375000.0,301038.93,237328.73,375000.0,375000.0,,,,,
0.877,2891745,-11514.34,28638.71,375000.0,375000.0,301022.73,237316.25,375000.0,375000.0,,,,,
0.878,2891746,-11516.15,28638.52,375000.0,375000.0,301006.79,237303.57,375000.0,375000.0,,,,,
0.879,2891747,-11515.04,28641.33,375000.0,375000.0,300996.13,237294.24,375000.0,375000.0,,,,,
0.880,2891748,-11511.83,28645.44,375000.0,375000.0,300994.52,237291.05,375000.0,375000.0,,,,,
0.881,2891749,-11507.65,28649.19,375000.0,375000.0,301002.68,237294.81,375000.0,375000.0,,,,,
0.882,2891750,-11503.5,28651.79,375000.0,375000.0,301017.84,237304.11,375000.0,375000.0,,,,,
0.883,2891751,-11499.94,28653.5,375000.0,375000.0,301034.86,237315.94,375000.0,375000.0,,,,,
0.884,2891752,-11497.02,28655.31,375000.0,375000.0,301048.46,237327.15,375000.0,375000.0,,,,,
0.885,2891753,-11494.46,28658.16,375000.0,375000.0,301055.5,237335.7,375000.0,375000.0,,,,,
0.886,2891754,-11492.04,28662.19,375000.0,375000.0,301056.21,237341.29,375000.0,375000.0,,,,,
0.887,2891755,-11489.92,28666.52,375000.0,375000.0,301053.79,237345.01,375000.0,375000.0,,,,,
0.888,2891756,-11488.79,28669.49,375000.0,375000.0,301052.73,237348.23,375000.0,375000.0,,,,,
0.889,2891757,-11489.58,28669.51,375000.0,375000.0,301056.55,237351.48,375000.0,375000.0,,,,,
0.890,2891758,-11493.08,28665.85,375000.0,375000.0,301066.07,237353.96,375000.0,375000.0,,,,,
0.891,2891759,-11499.41,28659.15,375000.0,375000.0,301079.04,237353.89,375000.0,375000.0,,,,,
0.892,2891760,-11507.71,28651.15,375000.0,375000.0,301091.05,237349.68,375000.0,375000.0,,,,,
0.893,2891761,-11516.3,28644.07,375000.0,375000.0,301097.43,237341.18,375000.0,375000.0,,,,,
0.894,2891762,-11523.12,28639.64,375000.0,375000.0,301095.22,237330.23,375000.0,375000.0,,,,,
0.895,2891763,-11526.44,28638.56,375000.0,375000.0,301084.42,237320.2,375000.0,375000.0,,,,,
0.896,2891764,-11525.46,28640.37,375000.0,375000.0,301068.11,237314.64,375000.0,375000.0,,,,,
0.897,2891765,-11520.59,28643.87,375000.0,375000.0,301051.43,237315.6,375000.0,375000.0,,,,,
0.898,2891766,-11513.22,28647.85,375000.0,375000.0,301039.8,237322.66,375000.0,375000.0,,,,,
0.899,2891767,-11505.19,28651.61,375000.0,375000.0,301037.05,237332.99,375000.0,375000.0,,,,,
0.900,2891768,-11498.15,28655.15,375000.0,375000.0,301044.1,237342.61,375000.0,375000.0,,,,,
0.901,2891769,-11493.01,28658.87,375000.0,375000.0,301058.6,237348.26,375000.0,375000.0,,,,,
0.902,2891770,-11489.9,28663.1,375000.0,375000.0,301075.59,237348.79,375000.0,375000.0,,,,,
0.903,2891771,-11488.35,28667.67,375000.0,375000.0,301089.23,237345.56,375000.0,375000.0,,,,,
0.904,2891772,-11487.81,28671.81,375000.0,375000.0,301094.79,237341.52,375000.0,375000.0,,,,,
0.905,2891773,-11487.99,28674.43,375000.0,375000.0,301090.46,237339.58,375000.0,375000.0,,,,,
0.906,2891774,-11489.04,28674.6,375000.0,375000.0,301078.1,237341.02,375000.0,375000.0,,,,,
0.907,2891775,-11491.3,28672.03,375000.0,375000.0,301062.75,237344.96,375000.0,375000.0,,,,,
0.908,2891776,-11494.97,28667.24,375000.0,375000.0,301050.75,237348.89,375000.0,375000.0,,,,,
0.909,2891777,-11499.68,28661.48,375000.0,375000.0,301047.42,237350.26,375000.0,375000.0,,,,,
0.910,2891778,-11504.42,28656.27,375000.0,375000.0,301054.8,237347.94,375000.0,375000.0,,,,,
0.911,2891779,-11507.83,28652.95,375000.0,375000.0,301070.78,237342.91,375000.0,375000.0,,,,,
0.912,2891780,-11508.67,28652.27,375000.0,375000.0,301089.72,237337.78,375000.0,375000.0,,,,,
0.913,2891781,-11506.48,28654.18,375000.0,375000.0,301104.55,237335.31,375000.0,375000.0,,,,,
0.914,2891782,-11501.76,28657.96,375000.0,375000.0,301109.38,237336.87,375000.0,375000.0,,,,,
0.915,2891783,-11495.93,28662.46,375000.0,375000.0,301101.74,237341.72,375000.0,375000.0,,,,,
0.916,2891784,-11490.72,28666.54,375000.0,375000.0,301083.32,237347.43,375000.0,375000.0,,,,,
0.917,2891785,-11487.49,28669.34,375000.0,375000.0,301059.18,237351.28,375000.0,375000.0,,,,,
0.918,2891786,-11486.73,28670.6,375000.0,375000.0,301035.73,237351.87,375000.0,375000.0,,,,,
0.919,2891787,-11487.87,28670.59,375000.0,375000.0,301018.46,237349.91,375000.0,375000.0,,,,,
0.920,2891788,-11489.76,28669.94,375000.0,375000.0,301010.26,237347.78,375000.0,375000.0,,,,,
0.921,2891789,-11491.26,28669.28,375000.0,375000.0,301010.97,237348.06,375000.0,375000.0,,,,,
0.922,2891790,-11491.95,28668.87,375000.0,375000.0,301018.08,237351.9,375000.0,375000.0,,,,,
0.923,2891791,-11492.33,28668.41,375000.0,375000.0,301028.13,237358.07,375000.0,375000.0,,,,,
0.924,2891792,-11493.58,28667.15,375000.0,375000.0,301038.0,237363.46,375000.0,375000.0,,,,,
0.925,2891793,-11496.89,28664.33,375000.0,375000.0,301045.67,237364.68,375000.0,375000.0,,,,,
0.926,2891794,-11502.67,28659.61,375000.0,375000.0,301050.34,237360.0,375000.0,375000.0,,,,,
0.927,2891795,-11510.2,28653.52,375000.0,375000.0,301052.09,237350.49,375000.0,375000.0,,,,,
0.928,2891796,-11517.74,28647.4,375000.0,375000.0,301051.39,237339.74,375000.0,375000.0,,,,,
0.929,2891797,-11523.21,28642.96,375000.0,375000.0,301048.87,237332.14,375000.0,375000.0,,,,,
0.930,2891798,-11525.09,28641.55,375000.0,375000.0,301045.29,237330.72,375000.0,375000.0,,,,,
0.931,2891799,-11523.06,28643.51,375000.0,375000.0,301041.5,237335.51,375000.0,375000.0,,,,,
0.932,2891800,-11518.14,28647.98,375000.0,375000.0,301038.41,237343.51,375000.0,375000.0,,,,,
0.933,2891801,-11512.21,28653.18,375000.0,375000.0,301036.66,237350.21,375000.0,375000.0,,,,,
0.934,2891802,-11507.17,28657.23,375000.0,375000.0,301036.36,237351.82,375000.0,375000.0,,,,,
0.935,2891803,-11504.25,28658.95,375000.0,375000.0,301036.95,237347.24,375000.0,375000.0,,,,,
0.936,2891804,-11503.6,28658.34,375000.0,375000.0,301037.39,237338.51,375000.0,375000.0,,,,,
0.937,2891805,-11504.61,28656.41,375000.0,375000.0,301036.64,237329.73,375000.0,375000.0,,,,,
0.938,2891806,-11506.42,28654.55,375000.0,375000.0,301034.21,237324.86,375000.0,375000.0,,,,,
0.939,2891807,-11508.53,28653.7,375000.0,375000.0,301030.49,237325.73,375000.0,375000.0,,,,,
0.940,2891808,-11511.05,28653.86,375000.0,375000.0,301026.64,237331.22,375000.0,375000.0,,,,,
0.941,2891809,-11514.44,28654.12,375000.0,375000.0,301024.11,237337.98,375000.0,375000.0,,,,,
0.942,2891810,-11519.0,28653.31,375000.0,375000.0,301024.03,237342.36,375000.0,375000.0,,,,,
0.943,2891811,-11524.34,28650.8,375000.0,375000.0,301026.74,237342.37,375000.0,375000.0,,,,,
0.944,2891812,-11529.31,28646.99,375000.0,375000.0,301031.69,237338.6,375000.0,375000.0,,,,,
0.945,2891813,-11532.38,28643.22,375000.0,375000.0,301037.68,237333.79,375000.0,375000.0,,,,,
0.946,2891814,-11532.35,28641.15,375000.0,375000.0,301043.31,237331.08,375000.0,375000.0,,,,,
0.947,2891815,-11529.01,28641.88,375000.0,375000.0,301047.37,237332.16,375000.0,375000.0,,,,,
0.948,2891816,-11523.32,28645.31,375000.0,375000.0,301049.13,237336.27,375000.0,375000.0,,,,,
0.949,2891817,-11517.08,28650.2,375000.0,375000.0,301048.32,237340.62,375000.0,375000.0,,,,,
0.950,2891818,-11512.16,28654.67,375000.0,375000.0,301045.16,237341.95,375000.0,375000.0,,,,,
0.951,2891819,-11509.69,28657.18,375000.0,375000.0,301040.31,237338.47,375000.0,375000.0,,,,,
0.952,2891820,-11509.73,28657.11,375000.0,375000.0,301034.84,237331.03,375000.0,375000.0,,,,,
0.953,2891821,-11511.42,28654.95,375000.0,375000.0,301030.14,237322.9,375000.0,375000.0,,,,,
0.954,2891822,-11513.6,28651.86,375000.0,375000.0,301027.65,237318.24,375000.0,375000.0,,,,,
0.955,2891823,-11515.48,28648.95,375000.0,375000.0,301028.36,237320.03,375000.0,375000.0,,,,,
0.956,2891824,-11517.05,28646.71,375000.0,375000.0,301032.38,237328.55,375000.0,375000.0,,,,,
0.957,2891825,-11518.9,28644.86,375000.0,375000.0,301038.71,237341.13,375000.0,375000.0,,,,,
0.958,2891826,-11521.76,28642.74,375000.0,375000.0,301045.47,237353.3,375000.0,375000.0,,,,,
0.959,2891827,-11525.83,28639.86,375000.0,375000.0,301050.56,237360.74,375000.0,375000.0,,,,,
0.960,2891828,-11530.55,28636.3,375000.0,375000.0,301052.53,237361.08,375000.0,375000.0,,,,,
0.961,2891829,-11534.77,28632.81,375000.0,375000.0,301051.24,237354.73,375000.0,375000.0,,,,,
0.962,2891830,-11537.27,28630.38,375000.0,375000.0,301047.9,237344.48,375000.0,375000.0,,,,,
0.963,2891831,-11537.41,28629.74,375000.0,375000.0,301044.52,237334.08,375000.0,375000.0,,,,,
0.964,2891832,-11535.36,28631.01,375000.0,375000.0,301042.99,237326.69,375000.0,375000.0,,,,,
0.965,2891833,-11532.03,28633.75,375000.0,375000.0,301044.17,237323.85,375000.0,375000.0,,,,,
0.966,2891834,-11528.53,28637.2,375000.0,375000.0,301047.56,237325.29,375000.0,375000.0,,,,,
0.967,2891835,-11525.66,28640.77,375000.0,375000.0,301051.72,237329.59,375000.0,375000.0,,,,,
0.968,2891836,-11523.64,28644.2,375000.0,375000.0,301055.08,237335.11,375000.0,375000.0,,,,,
0.969,2891837,-11522.23,28647.46,375000.0,375000.0,301056.87,237340.65,375000.0,375000.0,,,,,
0.970,2891838,-11521.12,28650.43,375000.0,375000.0,301057.51,237345.65,375000.0,375000.0,,,,,
0.971,2891839,-11520.3,28652.64,375000.0,375000.0,301058.26,237349.84,375000.0,375000.0,,,,,
0.972,2891840,-11520.21,28653.32,375000.0,375000.0,301060.37,237352.91,375000.0,375000.0,,,,,
0.973,2891841,-11521.46,28651.74,375000.0,375000.0,301064.17,237354.33,375000.0,375000.0,,,,,
0.974,2891842,-11524.37,28647.73,375000.0,375000.0,301068.66,237353.6,375000.0,375000.0,,,,,
0.975,2891843,-11528.67,28641.99,375000.0,375000.0,301071.97,237350.79,375000.0,375000.0,,,,,
0.976,2891844,-11533.38,28636.01,375000.0,375000.0,301072.38,237346.97,375000.0,375000.0,,,,,
0.977,2891845,-11537.22,28631.49,375000.0,375000.0,301069.4,237344.06,375000.0,375000.0,,,,,
0.978,2891846,-11539.14,28629.71,375000.0,375000.0,301064.37,237344.33,375000.0,375000.0,,,,,
0.979,2891847,-11538.79,28630.93,375000.0,375000.0,301060.02,237349.34,375000.0,375000.0,,,,,
0.980,2891848,-11536.61,28634.42,375000.0,375000.0,301059.2,237359.08,375000.0,375000.0,,,,,
0.981,2891849,-11533.52,28638.8,375000.0,375000.0,301063.38,237371.64,375000.0,375000.0,,,,,
0.982,2891850,-11530.48,28642.76,375000.0,375000.0,301071.71,237383.62,375000.0,375000.0,,,,,
0.983,2891851,-11528.04,28645.56,375000.0,375000.0,301081.14,237391.27,375000.0,375000.0,,,,,
0.984,2891852,-11526.21,28647.16,375000.0,375000.0,301087.69,237391.76,375000.0,375000.0,,,,,
0.985,2891853,-11524.73,28647.98,375000.0,375000.0,301088.3,237384.34,375000.0,375000.0,,,,,
0.986,2891854,-11523.41,28648.4,375000.0,375000.0,301082.33,237370.61,375000.0,375000.0,,,,,
0.987,2891855,-11522.45,28648.44,375000.0,375000.0,301072.0,237354.01,375000.0,375000.0,,,,,
0.988,2891856,-11522.37,28647.78,375000.0,375000.0,301061.36,237338.66,375000.0,375000.0,,,,,
0.989,2891857,-11523.72,28646.07,375000.0,375000.0,301054.42,237327.94,375000.0,375000.0,,,,,
0.990,2891858,-11526.66,28643.3,375000.0,375000.0,301053.17,237323.41,375000.0,375000.0,,,,,
0.991,2891859,-11530.72,28639.98,375000.0,375000.0,301056.56,237324.38,375000.0,375000.0,,,,,
0.992,2891860,-11534.9,28636.98,375000.0,375000.0,301061.05,237328.4,375000.0,375000.0,,,,,
0.993,2891861,-11538.08,28635.09,375000.0,375000.0,301062.38,237332.28,375000.0,375000.0,,,,,
0.994,2891862,-11539.48,28634.6,375000.0,375000.0,301057.84,237333.45,375000.0,375000.0,,,,,
0.995,2891863,-11538.94,28635.2,375000.0,375000.0,301047.89,237331.0,375000.0,375000.0,,,,,
0.996,2891864,-11536.88,28636.18,375000.0,375000.0,301036.19,237326.11,375000.0,375000.0,,,,,
0.997,2891865,-11533.99,28636.96,375000.0,375000.0,301028.09,237321.56,375000.0,375000.0,,,,,
0.998,2891866,-11530.79,28637.48,375000.0,375000.0,301028.13,237320.57,375000.0,375000.0,,,,,
0.999,2891867,-11527.47,28638.23,375000.0,375000.0,301037.87,237325.42,375000.0,375000.0,,,,,
1.000,2891868,-11523.93,28639.92,375000.0,375000.0,301054.93,237336.21,375000.0,375000.0,,,,,
1.001,2891869,-11520.1,28642.92,375000.0,375000.0,301073.94,237350.51,375000.0,375000.0,,,,,
1.002,2891870,-11516.27,28646.82,375000.0,375000.0,301088.75,237364.0,375000.0,375000.0,,,,,
1.003,2891871,-11513.19,28650.46,375000.0,375000.0,301095.07,237371.9,375000.0,375000.0,,,,,
1.004,2891872,-11511.9,28652.35,375000.0,375000.0,301092.08,237370.78,375000.0,375000.0,,,,,
1.005,2891873,-11513.21,28651.41,375000.0,375000.0,301082.5,237359.92,375000.0,375000.0,,,,,
1.006,2891874,-11517.38,28647.47,375000.0,375000.0,301071.04,237341.79,375000.0,375000.0,,,,,
1.007,2891875,-11523.83,28641.4,375000.0,375000.0,301062.12,237321.25,375000.0,375000.0,,,,,
1.008,2891876,-11531.32,28634.71,375000.0,375000.0,301058.03,237303.93,375000.0,375000.0,,,,,
1.009,2891877,-11538.36,28628.96,375000.0,375000.0,301058.32,237294.24,375000.0,375000.0,,,,,
1.010,2891878,-11543.61,28625.18,375000.0,375000.0,301060.65,237293.95,375000.0,375000.0,,,,,
1.011,2891879,-11546.31,28623.67,375000.0,375000.0,301062.48,237301.85,375000.0,375000.0,,,,,
1.012,2891880,-11546.28,28624.21,375000.0,375000.0,301062.53,237314.47,375000.0,375000.0,,,,,
1.013,2891881,-11543.86,28626.4,375000.0,375000.0,301061.35,237327.64,375000.0,375000.0,,,,,
1.014,2891882,-11539.7,28629.99,375000.0,375000.0,301060.62,237338.1,375000.0,375000.0,,,,,
1.015,2891883,-11534.59,28634.85,375000.0,375000.0,301061.9,237344.49,375000.0,375000.0,,,,,
1.016,2891884,-11529.32,28640.73,375000.0,375000.0,301065.41,237347.39,375000.0,375000.0,,,,,
1.017,2891885,-11524.63,28647.02,375000.0,375000.0,301069.91,237348.49,375000.0,375000.0,,,,,
1.018,2891886,-11521.13,28652.71,375000.0,375000.0,301073.45,237349.45,375000.0,375000.0,,,,,
1.019,2891887,-11519.15,28656.66,375000.0,375000.0,301074.77,237351.05,375000.0,375000.0,,,,,
1.020,2891888,-11518.67,28658.09,375000.0,375000.0,301074.21,237352.9,375000.0,375000.0,,,,,
1.021,2891889,-11519.37,28656.97,375000.0,375000.0,301073.7,237353.95,375000.0,375000.0,,,,,
1.022,2891890,-11520.74,28654.08,375000.0,375000.0,301075.55,237353.28,375000.0,375000.0,,,,,
1.023,2891891,-11522.41,28650.6,375000.0,375000.0,301080.84,237350.77,375000.0,375000.0,,,,,
1.024,2891892,-11524.33,28647.57,375000.0,375000.0,301088.27,237347.23,375000.0,375000.0,,,,,
1.025,2891893,-11526.78,28645.35,375000.0,375000.0,301094.41,237344.0,375000.0,375000.0,,,,,
1.026,2891894,-11530.11,28643.63,375000.0,375000.0,301095.16,237342.23,375000.0,375000.0,,,,,
1.027,2891895,-11534.34,28641.8,375000.0,375000.0,301087.92,237342.27,375000.0,375000.0,,,,,
1.028,2891896,-11538.92,28639.53,375000.0,375000.0,301073.19,237343.52,375000.0,375000.0,,,,,
1.029,2891897,-11542.66,28637.25,375000.0,375000.0,301054.7,237344.81,375000.0,375000.0,,,,,
1.030,2891898,-11544.15,28636.07,375000.0,375000.0,301037.99,237345.07,375000.0,375000.0,,,,,
1.031,2891899,-11542.33,28637.27,375000.0,375000.0,301027.94,237343.93,375000.0,375000.0,,,,,
1.032,2891900,-11537.03,28641.58,375000.0,375000.0,301026.72,237341.91,375000.0,375000.0,,,,,
1.033,2891901,-11529.16,28648.63,375000.0,375000.0,301033.01,237340.22,375000.0,375000.0,,,,,
1.034,2891902,-11520.45,28656.93,375000.0,375000.0,301042.93,237340.13,375000.0,375000.0,,,,,
1.035,2891903,-11512.85,28664.43,375000.0,375000.0,301052.16,237342.49,375000.0,375000.0,,,,,
1.036,2891904,-11507.82,28669.36,375000.0,375000.0,301057.99,237347.39,375000.0,375000.0,,,,,
1.037,2891905,-11505.97,28670.86,375000.0,375000.0,301060.35,237354.19,375000.0,375000.0,,,,,
1.038,2891906,-11507.04,28669.21,375000.0,375000.0,301061.2,237361.79,375000.0,375000.0,,,,,
1.039,2891907,-11510.31,28665.5,375000.0,375000.0,301062.95,237368.91,375000.0,375000.0,,,,,
1.040,2891908,-11514.97,28660.95,375000.0,375000.0,301066.69,237374.29,375000.0,375000.0,,,,,
1.041,2891909,-11520.47,28656.4,375000.0,375000.0,301071.49,237376.82,375000.0,375000.0,,,,,
1.042,2891910,-11526.42,28652.13,375000.0,375000.0,301074.99,237375.65,375000.0,375000.0,,,,,
1.043,2891911,-11532.43,28648.08,375000.0,375000.0,301074.95,237370.5,375000.0,375000.0,,,,,
1.044,2891912,-11537.83,28644.31,375000.0,375000.0,301070.8,237361.94,375000.0,375000.0,,,,,
1.045,2891913,-11541.75,28641.27,375000.0,375000.0,301064.24,237351.57,375000.0,375000.0,,,,,
1.046,2891914,-11543.34,28639.71,375000.0,375000.0,301058.44,237341.83,375000.0,375000.0,,,,,
1.047,2891915,-11542.21,28640.33,375000.0,375000.0,301056.35,237335.29,375000.0,375000.0,,,,,
1.048,2891916,-11538.71,28643.31,375000.0,375000.0,301059.06,237333.75,375000.0,375000.0,,,,,
1.049,2891917,-11533.84,28648.04,375000.0,375000.0,301065.18,237337.34,375000.0,375000.0,,,,,
1.050,2891918,-11528.9,28653.35,375000.0,375000.0,301071.55,237344.38,375000.0,375000.0,,,,,
1.051,2891919,-11524.92,28657.97,375000.0,375000.0,301074.99,237351.94,375000.0,375000.0,,,,,
1.052,2891920,-11522.33,28661.08,375000.0,375000.0,301073.98,237357.13,375000.0,375000.0,,,,,
1.053,2891921,-11520.92,28662.5,375000.0,375000.0,301069.43,237358.4,375000.0,375000.0,,,,,
1.054,2891922,-11520.24,28662.62,375000.0,375000.0,301064.09,237356.23,375000.0,375000.0,,,,,
1.055,2891923,-11520.0,28661.94,375000.0,375000.0,301060.99,237352.79,375000.0,375000.0,,,,,
1.056,2891924,-11520.4,28660.66,375000.0,375000.0,301061.75,237350.77,375000.0,375000.0,,,,,
1.057,2891925,-11521.96,28658.56,375000.0,375000.0,301065.75,237351.8,375000.0,375000.0,,,,,
1.058,2891926,-11525.12,28655.28,375000.0,375000.0,301070.5,237355.5,375000.0,375000.0,,,,,
1.059,2891927,-11529.74,28650.78,375000.0,375000.0,301073.07,237359.64,375000.0,375000.0,,,,,
1.060,2891928,-11534.85,28645.65,375000.0,375000.0,301071.63,237361.35,375000.0,375000.0,,,,,
1.061,2891929,-11538.96,28641.09,375000.0,375000.0,301066.39,237358.8,375000.0,375000.0,,,,,
1.062,2891930,-11540.69,28638.41,375000.0,375000.0,301059.36,237352.37,375000.0,375000.0,,,,,
1.063,2891931,-11539.37,28638.43,375000.0,375000.0,301053.29,237344.62,375000.0,375000.0,,,,,
1.064,2891932,-11535.47,28640.98,375000.0,375000.0,301050.24,237338.99,375000.0,375000.0,,,,,
1.065,2891933,-11530.35,28645.0,375000.0,375000.0,301050.71,237337.95,375000.0,375000.0,,,,,
1.066,2891934,-11525.6,28648.97,375000.0,375000.0,301053.66,237341.57,375000.0,375000.0,,,,,
1.067,2891935,-11522.26,28651.74,375000.0,375000.0,301057.25,237347.37,375000.0,375000.0,,,,,
1.068,2891936,-11520.44,28653.01,375000.0,375000.0,301059.91,237351.66,375000.0,375000.0,,,,,
1.069,2891937,-11519.35,28653.35,375000.0,375000.0,301061.02,237351.55,375000.0,375000.0,,,,,
1.070,2891938,-11518.0,28653.77,375000.0,375000.0,301061.01,237346.7,375000.0,375000.0,,,,,
1.071,2891939,-11515.86,28654.9,375000.0,375000.0,301060.82,237339.51,375000.0,375000.0,,,,,
1.072,2891940,-11513.41,28656.46,375000.0,375000.0,301061.19,237333.95,375000.0,375000.0,,,,,
1.073,2891941,-11511.96,28657.32,375000.0,375000.0,301062.19,237333.23,375000.0,375000.0,,,,,
1.074,2891942,-11513.02,28655.99,375000.0,375000.0,301063.22,237337.98,375000.0,375000.0,,,,,
1.075,2891943,-11517.51,28651.5,375000.0,375000.0,301063.44,237345.75,375000.0,375000.0,,,,,
1.076,2891944,-11525.15,28644.08,375000.0,375000.0,301062.29,237352.35,375000.0,375000.0,,,,,
1.077,2891945,-11534.43,28635.19,375000.0,375000.0,301059.87,237354.26,375000.0,375000.0,,,,,
1.078,2891946,-11543.17,28627.07,375000.0,375000.0,301056.98,237350.85,375000.0,375000.0,,,,,
1.079,2891947,-11549.31,28621.74,375000.0,375000.0,301054.86,237345.05,375000.0,375000.0,,,,,
1.080,2891948,-11551.67,28620.25,375000.0,375000.0,301054.79,237342.0,375000.0,375000.0,,,,,
1.081,2891949,-11550.21,28622.31,375000.0,375000.0,301057.75,237346.37,375000.0,375000.0,,,,,
1.082,2891950,-11545.82,28626.64,375000.0,375000.0,301064.13,237359.69,375000.0,375000.0,,,,,
1.083,2891951,-11539.75,28631.64,375000.0,375000.0,301073.54,237379.23,375000.0,375000.0,,,,,
1.084,2891952,-11533.14,28636.17,375000.0,375000.0,301084.8,237399.01,375000.0,375000.0,,,,,
1.085,2891953,-11526.69,28639.93,375000.0,375000.0,301096.0,237412.58,375000.0,375000.0,,,,,
1.086,2891954,-11520.78,28643.3,375000.0,375000.0,301104.83,237415.99,375000.0,375000.0,,,,,
1.087,2891955,-11515.73,28646.81,375000.0,375000.0,301109.13,237409.46,375000.0,375000.0,,,,,
1.088,2891956,-11512.02,28650.56,375000.0,375000.0,301107.56,237396.95,375000.0,375000.0,,,,,
1.089,2891957,-11510.3,28653.94,375000.0,375000.0,301100.17,237383.73,375000.0,375000.0,,,,,
1.090,2891958,-11511.11,28655.87,375000.0,375000.0,301088.5,237373.58,375000.0,375000.0,,,,,
1.091,2891959,-11514.56,28655.35,375000.0,375000.0,301075.21,237367.02,375000.0,375000.0,,,,,
1.092,2891960,-11520.04,28652.07,375000.0,375000.0,301063.21,237361.53,375000.0,375000.0,,,,,
1.093,2891961,-11526.31,28646.69,375000.0,375000.0,301054.73,237353.73,375000.0,375000.0,,,,,
1.094,2891962,-11531.88,28640.65,375000.0,375000.0,301050.72,237341.97,375000.0,375000.0,,,,,
1.095,2891963,-11535.54,28635.57,375000.0,375000.0,301050.78,237328.02,375000.0,375000.0,,,,,
1.096,2891964,-11536.83,28632.56,375000.0,375000.0,301053.6,237316.61,375000.0,375000.0,,,,,
1.097,2891965,-11536.16,28631.8,375000.0,375000.0,301057.69,237313.09,375000.0,375000.0,,,,,
1.098,2891966,-11534.61,28632.55,375000.0,375000.0,301061.88,237320.46,375000.0,375000.0,,,,,
1.099,2891967,-11533.35,28633.66,375000.0,375000.0,301065.54,237337.35,375000.0,375000.0,,,,,
1.100,2891968,-11533.16,28634.22,375000.0,375000.0,301068.33,237358.2,375000.0,375000.0,,,,,
1.101,2891969,-11534.02,28634.11,375000.0,375000.0,301070.0,237375.54,375000.0,375000.0,,,,,
1.102,2891970,-11535.17,28634.05,375000.0,375000.0,301070.3,237383.33,375000.0,375000.0,,,,,
1.103,2891971,-11535.46,28635.19,375000.0,375000.0,301069.12,237379.55,375000.0,375000.0,,,,,
1.104,2891972,-11533.97,28638.44,375000.0,375000.0,301066.88,237366.86,375000.0,375000.0,,,,,
1.105,2891973,-11530.43,28643.83,375000.0,375000.0,301064.58,237350.95,375000.0,375000.0,,,,,
1.106,2891974,-11525.52,28650.32,375000.0,375000.0,301063.51,237337.66,375000.0,375000.0,,,,,
1.107,2891975,-11520.59,28656.11,375000.0,375000.0,301064.6,237330.29,375000.0,375000.0,,,,,
1.108,2891976,-11517.18,28659.37,375000.0,375000.0,301067.73,237328.42,375000.0,375000.0,,,,,
1.109,2891977,-11516.37,28659.1,375000.0,375000.0,301071.56,237328.81,375000.0,375000.0,,,,,
1.110,2891978,-11518.28,28655.58,375000.0,375000.0,301074.0,237327.63,375000.0,375000.0,,,,,
1.111,2891979,-11522.03,28650.39,375000.0,375000.0,301073.22,237322.76,375000.0,375000.0,,,,,
1.112,2891980,-11526.07,28645.77,375000.0,375000.0,301068.74,237314.91,375000.0,375000.0,,,,,
1.113,2891981,-11528.78,28643.72,375000.0,375000.0,301061.84,237307.12,375000.0,375000.0,,,,,
1.114,2891982,-11529.12,28645.25,375000.0,375000.0,301055.05,237302.97,375000.0,375000.0,,,,,
1.115,2891983,-11526.97,28650.04,375000.0,375000.0,301050.94,237304.65,375000.0,375000.0,,,,,
1.116,2891984,-11523.07,28656.71,375000.0,375000.0,301050.75,237311.85,375000.0,375000.0,,,,,
1.117,2891985,-11518.55,28663.46,375000.0,375000.0,301053.73,237322.01,375000.0,375000.0,,,,,
1.118,2891986,-11514.47,28668.83,375000.0,375000.0,301057.5,237331.64,375000.0,375000.0,,,,,
1.119,2891987,-11511.39,28672.1,375000.0,375000.0,301059.35,237337.99,375000.0,375000.0,,,,,
1.120,2891988,-11509.37,28673.33,375000.0,375000.0,301057.69,237340.07,375000.0,375000.0,,,,,
1.121,2891989,-11508.24,28672.99,375000.0,375000.0,301052.9,237338.74,375000.0,375000.0,,,,,
1.122,2891990,-11507.98,28671.47,375000.0,375000.0,301047.1,237335.87,375000.0,375000.0,,,,,
1.123,2891991,-11508.86,28668.88,375000.0,375000.0,301042.86,237333.31,375000.0,375000.0,,,,,
1.124,2891992,-11511.3,28665.07,375000.0,375000.0,301041.82,237332.07,375000.0,375000.0,,,,,
1.125,2891993,-11515.53,28660.01,375000.0,375000.0,301043.81,237332.18,375000.0,375000.0,,,,,
1.126,2891994,-11521.13,28654.12,375000.0,375000.0,301047.12,237333.1,375000.0,375000.0,,,,,
1.127,2891995,-11526.99,28648.33,375000.0,375000.0,301049.66,237334.25,375000.0,375000.0,,,,,
1.128,2891996,-11531.69,28643.75,375000.0,375000.0,301050.35,237335.37,375000.0,375000.0,,,,,
1.129,2891997,-11534.05,28641.2,375000.0,375000.0,301049.8,237336.56,375000.0,375000.0,,,,,
1.130,2891998,-11533.78,28640.77,375000.0,375000.0,301049.92,237338.0,375000.0,375000.0,,,,,
1.131,2891999,-11531.62,28641.8,375000.0,375000.0,301052.63,237339.75,375000.0,375000.0,,,,,
1.132,2892000,-11528.91,28643.32,375000.0,375000.0,301058.53,237341.67,375000.0,375000.0,,,,,
1.133,2892001,-11526.91,28644.62,375000.0,375000.0,301066.25,237343.54,375000.0,375000.0,,,,,
1.134,2892002,-11526.04,28645.71,375000.0,375000.0,301073.02,237345.25,375000.0,375000.0,,,,,
1.135,2892003,-11525.8,28647.31,375000.0,375000.0,301076.1,237346.82,375000.0,375000.0,,,,,
1.136,2892004,-11525.14,28650.19,375000.0,375000.0,301074.3,237348.32,375000.0,375000.0,,,,,
1.137,2892005,-11523.35,28654.49,375000.0,375000.0,301068.61,237349.68,375000.0,375000.0,,,,,
1.138,2892006,-11520.81,28659.19,375000.0,375000.0,301061.75,237350.71,375000.0,375000.0,,,,,
1.139,2892007,-11519.01,28662.34,375000.0,375000.0,301056.63,237351.17,375000.0,375000.0,,,,,
1.140,2892008,-11519.87,28661.95,375000.0,375000.0,301054.9,237350.96,375000.0,375000.0,,,,,
1.141,2892009,-11524.58,28657.12,375000.0,375000.0,301056.12,237350.29,375000.0,375000.0,,,,,
1.142,2892010,-11532.63,28648.78,375000.0,375000.0,301058.2,237349.53,375000.0,375000.0,,,,,
1.143,2892011,-11541.72,28639.62,375000.0,375000.0,301058.72,237348.91,375000.0,375000.0,,,,,
1.144,2892012,-11548.63,28632.89,375000.0,375000.0,301056.25,237348.26,375000.0,375000.0,,,,,
1.145,2892013,-11550.84,28630.94,375000.0,375000.0,301051.11,237346.94,375000.0,375000.0,,,,,
1.146,2892014,-11547.8,28634.01,375000.0,375000.0,301045.06,237344.24,375000.0,375000.0,,,,,
1.147,2892015,-11541.34,28640.07,375000.0,375000.0,301040.22,237339.91,375000.0,375000.0,,,,,
1.148,2892016,-11534.76,28645.87,375000.0,375000.0,301038.01,237334.65,375000.0,375000.0,,,,,
1.149,2892017,-11531.02,28648.72,375000.0,375000.0,301038.68,237330.09,375000.0,375000.0,,,,,
1.150,2892018,-11531.15,28647.96,375000.0,375000.0,301041.64,237328.22,375000.0,375000.0,,,,,
1.151,2892019,-11533.56,28645.36,375000.0,375000.0,301046.21,237330.47,375000.0,375000.0,,,,,
1.152,2892020,-11534.98,28644.21,375000.0,375000.0,301052.21,237336.91,375000.0,375000.0,,,,,
1.153,2892021,-11532.37,28647.34,375000.0,375000.0,301059.93,237346.05,375000.0,375000.0,,,,,
1.154,2892022,-11524.88,28655.42,375000.0,375000.0,301069.37,237355.43,375000.0,375000.0,,,,,
1.155,2892023,-11514.69,28666.23,375000.0,375000.0,301079.52,237362.61,375000.0,375000.0,,,,,
1.156,2892024,-11506.19,28675.51,375000.0,375000.0,301088.15,237366.17,375000.0,375000.0,,,,,
1.157,2892025,-11503.78,28679.0,375000.0,375000.0,301092.48,237366.13,375000.0,375000.0,,,,,
1.158,2892026,-11509.56,28674.6,375000.0,375000.0,301090.53,237363.65,375000.0,375000.0,,,,,
1.159,2892027,-11521.99,28663.52,375000.0,375000.0,301082.41,237360.16,375000.0,375000.0,,,,,
1.160,2892028,-11536.54,28649.75,375000.0,375000.0,301070.58,237356.66,375000.0,375000.0,,,,,
1.161,2892029,-11547.76,28638.23,375000.0,375000.0,301059.02,237353.31,375000.0,375000.0,,,,,
1.162,2892030,-11552.0,28632.45,375000.0,375000.0,301051.44,237349.81,375000.0,375000.0,,,,,
1.163,2892031,-11549.15,28632.91,375000.0,375000.0,301049.58,237346.02,375000.0,375000.0,,,,,
1.164,2892032,-11542.54,28637.1,375000.0,375000.0,301052.51,237342.43,375000.0,375000.0,,,,,
1.165,2892033,-11537.06,28641.06,375000.0,375000.0,301057.33,237340.16,375000.0,375000.0,,,,,
1.166,2892034,-11536.55,28641.5,375000.0,375000.0,301060.96,237340.4,375000.0,375000.0,,,,,
1.167,2892035,-11541.76,28637.59,375000.0,375000.0,301061.79,237343.65,375000.0,375000.0,,,,,
1.168,2892036,-11550.08,28631.21,375000.0,375000.0,301060.54,237349.31,375000.0,375000.0,,,,,
1.169,2892037,-11556.97,28625.92,375000.0,375000.0,301059.6,237355.86,375000.0,375000.0,,,,,
1.170,2892038,-11558.47,28624.98,375000.0,375000.0,301061.34,237361.55,375000.0,375000.0,,,,,
1.171,2892039,-11553.19,28629.66,375000.0,375000.0,301066.47,237365.18,375000.0,375000.0,,,,,
1.172,2892040,-11543.0,28638.63,375000.0,375000.0,301073.34,237366.46,375000.0,375000.0,,,,,
1.173,2892041,-11531.93,28648.66,375000.0,375000.0,301078.68,237365.77,375000.0,375000.0,,,,,
1.174,2892042,-11524.13,28656.25,375000.0,375000.0,301079.33,237363.56,375000.0,375000.0,,,,,
1.175,2892043,-11521.86,28659.12,375000.0,375000.0,301073.99,237359.86,375000.0,375000.0,,,,,
1.176,2892044,-11524.72,28657.05,375000.0,375000.0,301063.96,237354.31,375000.0,375000.0,,,,,
1.177,2892045,-11530.29,28651.58,375000.0,375000.0,301052.46,237346.76,375000.0,375000.0,,,,,
1.178,2892046,-11535.65,28644.98,375000.0,375000.0,301042.98,237337.92,375000.0,375000.0,,,,,
1.179,2892047,-11538.88,28639.15,375000.0,375000.0,301037.58,237329.61,375000.0,375000.0,,,,,
1.180,2892048,-11539.78,28635.03,375000.0,375000.0,301036.07,237324.08,375000.0,375000.0,,,,,
1.181,2892049,-11539.4,28632.63,375000.0,375000.0,301036.62,237322.83,375000.0,375000.0,,,,,
1.182,2892050,-11538.96,28631.63,375000.0,375000.0,301037.11,237325.54,375000.0,375000.0,,,,,
1.183,2892051,-11538.93,28631.84,375000.0,375000.0,301036.6,237329.93,375000.0,375000.0,,,,,
1.184,2892052,-11538.75,28633.38,375000.0,375000.0,301035.82,237332.79,375000.0,375000.0,,,,,
1.185,2892053,-11537.46,28636.39,375000.0,375000.0,301036.61,237331.84,375000.0,375000.0,,,,,
1.186,2892054,-11534.64,28640.57,375000.0,375000.0,301040.56,237327.33,375000.0,375000.0,,,,,
1.187,2892055,-11530.98,28644.97,375000.0,375000.0,301047.82,237322.23,375000.0,375000.0,,,,,
1.188,2892056,-11528.13,28648.23,375000.0,375000.0,301056.76,237320.81,375000.0,375000.0,,,,,
1.189,2892057,-11527.78,28649.2,375000.0,375000.0,301064.81,237326.19,375000.0,375000.0,,,,,
1.190,2892058,-11530.65,28647.51,375000.0,375000.0,301069.77,237338.22,375000.0,375000.0,,,,,
1.191,2892059,-11536.03,28643.74,375000.0,375000.0,301070.99,237353.1,375000.0,375000.0,,,,,
1.192,2892060,-11542.11,28639.08,375000.0,375000.0,301069.57,237365.13,375000.0,375000.0,,,,,
1.193,2892061,-11547.05,28634.74,375000.0,375000.0,301067.62,237369.73,375000.0,375000.0,,,,,
1.194,2892062,-11549.97,28631.33,375000.0,375000.0,301066.99,237366.19,375000.0,375000.0,,,,,
1.195,2892063,-11551.38,28628.77,375000.0,375000.0,301068.35,237358.35,375000.0,375000.0,,,,,
1.196,2892064,-11552.6,28626.72,375000.0,375000.0,301071.06,237352.68,375000.0,375000.0,,,,,
1.197,2892065,-11554.65,28625.23,375000.0,375000.0,301073.91,237354.68,375000.0,375000.0,,,,,
1.198,2892066,-11557.25,28625.12,375000.0,375000.0,301076.13,237365.58,375000.0,375000.0,,,,,
1.199,2892067,-11558.61,28627.87,375000.0,375000.0,301077.99,237381.27,375000.0,375000.0,,,,,
1.200,2892068,-11556.34,28634.8,375000.0,375000.0,301080.49,237394.26,375000.0,375000.0,,,,,
1.201,2892069,-11548.82,28646.2,375000.0,375000.0,301084.46,237397.68,375000.0,375000.0,,,,,
1.202,2892070,-11536.46,28660.7,375000.0,375000.0,301089.6,237389.16,375000.0,375000.0,,,,,
1.203,2892071,-11521.9,28675.47,375000.0,375000.0,301094.2,237372.26,375000.0,375000.0,,,,,
1.204,2892072,-11509.09,28687.2,375000.0,375000.0,301095.83,237354.68,375000.0,375000.0,,,,,
1.205,2892073,-11501.59,28693.3,375000.0,375000.0,301092.66,237344.08,375000.0,375000.0,,,,,
1.206,2892074,-11501.07,28692.88,375000.0,375000.0,301084.65,237343.87,375000.0,375000.0,,,,,
1.207,2892075,-11506.75,28686.97,375000.0,375000.0,301073.82,237351.48,375000.0,375000.0,,,,,
1.208,2892076,-11516.07,28677.8,375000.0,375000.0,301063.42,237360.02,375000.0,375000.0,,,,,
1.209,2892077,-11526.06,28667.79,375000.0,375000.0,301056.31,237362.58,375000.0,375000.0,,,,,
1.210,2892078,-11534.76,28658.63,375000.0,375000.0,301053.58,237356.46,375000.0,375000.0,,,,,
1.211,2892079,-11541.76,28650.89,375000.0,375000.0,301054.14,237344.94,375000.0,375000.0,,,,,
1.212,2892080,-11547.74,28644.47,375000.0,375000.0,301055.51,237335.43,375000.0,375000.0,,,,,
1.213,2892081,-11553.35,28639.23,375000.0,375000.0,301055.36,237334.93,375000.0,375000.0,,,,,
1.214,2892082,-11558.25,28635.59,375000.0,375000.0,301052.98,237345.55,375000.0,375000.0,,,,,
1.215,2892083,-11560.95,28634.47,375000.0,375000.0,301049.6,237362.73,375000.0,375000.0,,,,,
1.216,2892084,-11559.6,28636.74,375000.0,375000.0,301047.63,237377.35,375000.0,375000.0,,,,,
1.217,2892085,-11553.28,28642.52,375000.0,375000.0,301049.06,237380.74,375000.0,375000.0,,,,,
1.218,2892086,-11542.86,28650.71,375000.0,375000.0,301054.08,237369.66,375000.0,375000.0,,,,,
1.219,2892087,-11531.0,28659.21,375000.0,375000.0,301060.75,237348.51,375000.0,375000.0,,,,,
1.220,2892088,-11521.11,28665.77,375000.0,375000.0,301065.97,237327.17,375000.0,375000.0,,,,,
1.221,2892089,-11515.72,28668.94,375000.0,375000.0,301067.15,237315.83,375000.0,375000.0,,,,,
1.222,2892090,-11515.36,28668.74,375000.0,375000.0,301063.69,237319.42,375000.0,375000.0,,,,,
1.223,2892091,-11518.4,28666.51,375000.0,375000.0,301057.39,237334.95,375000.0,375000.0,,,,,
1.224,2892092,-11522.0,28664.22,375000.0,375000.0,301051.46,237353.17,375000.0,375000.0,,,,,
1.225,2892093,-11523.66,28663.4,375000.0,375000.0,301048.75,237363.71,375000.0,375000.0,,,,,
1.226,2892094,-11522.47,28664.49,375000.0,375000.0,301050.13,237360.83,375000.0,375000.0,,,,,
1.227,2892095,-11519.36,28666.71,375000.0,375000.0,301054.01,237346.5,375000.0,375000.0,,,,,
1.228,2892096,-11516.37,28668.72,375000.0,375000.0,301057.26,237329.25,375000.0,375000.0,,,,,
1.229,2892097,-11515.3,28669.45,375000.0,375000.0,301056.98,237319.37,375000.0,375000.0,,,,,
1.230,2892098,-11516.6,28668.78,375000.0,375000.0,301052.28,237323.29,375000.0,375000.0,,,,,
1.231,2892099,-11519.19,28667.52,375000.0,375000.0,301044.92,237340.13,375000.0,375000.0,,,,,
1.232,2892100,-11521.16,28666.95,375000.0,375000.0,301038.58,237362.36,375000.0,375000.0,,,,,
1.233,2892101,-11521.03,28667.95,375000.0,375000.0,301036.95,237379.96,375000.0,375000.0,,,,,
1.234,2892102,-11518.71,28670.47,375000.0,375000.0,301041.77,237385.61,375000.0,375000.0,,,,,
1.235,2892103,-11515.58,28673.48,375000.0,375000.0,301051.79,237378.22,375000.0,375000.0,,,,,
1.236,2892104,-11513.77,28675.49,375000.0,375000.0,301063.18,237362.78,375000.0,375000.0,,,,,
1.237,2892105,-11514.94,28675.28,375000.0,375000.0,301071.27,237347.15,375000.0,375000.0,,,,,
1.238,2892106,-11519.41,28672.51,375000.0,375000.0,301072.71,237337.7,375000.0,375000.0,,,,,
1.239,2892107,-11526.0,28667.79,375000.0,375000.0,301066.99,237336.34,375000.0,375000.0,,,,,
1.240,2892108,-11532.77,28662.29,375000.0,375000.0,301056.7,237340.48,375000.0,375000.0,,,,,
1.241,2892109,-11538.07,28657.13,375000.0,375000.0,301046.27,237345.46,375000.0,375000.0,,,,,
1.242,2892110,-11541.33,28652.95,375000.0,375000.0,301039.97,237347.78,375000.0,375000.0,,,,,
1.243,2892111,-11543.1,28649.75,375000.0,375000.0,301040.02,237347.01,375000.0,375000.0,,,,,
1.244,2892112,-11544.46,28647.24,375000.0,375000.0,301045.67,237345.41,375000.0,375000.0,,,,,
1.245,2892113,-11546.03,28645.26,375000.0,375000.0,301053.69,237345.73,375000.0,375000.0,,,,,
1.246,2892114,-11547.49,28644.04,375000.0,375000.0,301060.0,237348.9,375000.0,375000.0,,,,,
1.247,2892115,-11547.7,28644.14,375000.0,375000.0,301061.55,237353.12,375000.0,375000.0,,,,,
1.248,2892116,-11545.46,28646.04,375000.0,375000.0,301057.8,237355.08,375000.0,375000.0,,,,,
1.249,2892117,-11540.37,28649.76,375000.0,375000.0,301050.98,237352.29,375000.0,375000.0,,,,,
1.250,2892118,-11533.36,28654.66,375000.0,375000.0,301045.07,237345.03,375000.0,375000.0,,,,,
1.251,2892119,-11526.35,28659.58,375000.0,375000.0,301044.02,237336.52,375000.0,375000.0,,,,,
1.252,2892120,-11521.38,28663.33,375000.0,375000.0,301049.93,237331.14,375000.0,375000.0,,,,,
1.253,2892121,-11519.69,28665.13,375000.0,375000.0,301062.0,237331.76,375000.0,375000.0,,,,,
1.254,2892122,-11521.17,28664.88,375000.0,375000.0,301076.65,237337.96,375000.0,375000.0,,,,,
1.255,2892123,-11524.67,28662.95,375000.0,375000.0,301088.92,237346.31,375000.0,375000.0,,,,,
1.256,2892124,-11528.82,28659.82,375000.0,375000.0,301094.38,237352.45,375000.0,375000.0,,,,,
1.257,2892125,-11532.88,28655.68,375000.0,375000.0,301090.8,237353.72,375000.0,375000.0,,,,,
1.258,2892126,-11537.14,28650.31,375000.0,375000.0,301079.0,237350.64,375000.0,375000.0,,,,,
1.259,2892127,-11542.5,28643.36,375000.0,375000.0,301062.31,237346.27,375000.0,375000.0,,,,,
1.260,2892128,-11549.66,28634.83,375000.0,375000.0,301045.14,237343.8,375000.0,375000.0,,,,,
1.261,2892129,-11558.27,28625.51,375000.0,375000.0,301031.3,237344.11,375000.0,375000.0,,,,,
1.262,2892130,-11566.72,28616.96,375000.0,375000.0,301022.69,237344.85,375000.0,375000.0,,,,,
1.263,2892131,-11572.68,28611.08,375000.0,375000.0,301019.06,237341.75,375000.0,375000.0,,,,,
1.264,2892132,-11574.26,28609.36,375000.0,375000.0,301018.81,237331.6,375000.0,375000.0,,,,,
1.265,2892133,-11570.95,28612.19,375000.0,375000.0,301020.17,237314.86,375000.0,375000.0,,,,,
1.266,2892134,-11564.03,28618.6,375000.0,375000.0,301022.29,237296.28,375000.0,375000.0,,,,,
1.267,2892135,-11556.0,28626.62,375000.0,375000.0,301025.42,237283.0,375000.0,375000.0,,,,,
1.268,2892136,-11549.45,28634.07,375000.0,375000.0,301030.37,237280.87,375000.0,375000.0,,,,,
1.269,2892137,-11545.92,28639.41,375000.0,375000.0,301037.43,237291.36,375000.0,375000.0,,,,,
1.270,2892138,-11545.33,28642.22,375000.0,375000.0,301045.62,237310.64,375000.0,375000.0,,,,,
1.271,2892139,-11546.3,28643.16,375000.0,375000.0,301052.75,237331.51,375000.0,375000.0,,,,,
1.272,2892140,-11547.12,28643.37,375000.0,375000.0,301056.34,237347.05,375000.0,375000.0,,,,,
1.273,2892141,-11546.74,28643.72,375000.0,375000.0,301054.94,237353.9,375000.0,375000.0,,,,,
1.274,2892142,-11545.34,28644.35,375000.0,375000.0,301049.22,237353.34,375000.0,375000.0,,,,,
1.275,2892143,-11544.0,28644.68,375000.0,375000.0,301041.89,237349.74,375000.0,375000.0,,,,,
1.276,2892144,-11543.94,28643.93,375000.0,375000.0,301036.65,237347.45,375000.0,375000.0,,,,,
